# patient_id 558-76-49
# patient_first_name JERELYN
# patient_middle_initial _
# patient_last_name ROBERTS
# astroid_id 82786
# course_name 1st
# beam_name 215A1
# gantry 215
# couch_rotation -0
# gigaproton_total   13.088
# rows_total 669
# E(MeV)    X(mm)    Y(mm)    N(Gp)
 133.900  -24.778    8.292 0.001646
 133.900  -11.938    8.292 0.018211
 133.900  -21.568   13.852 0.007327
 133.900  -15.148   13.852 0.010272
 133.900   -8.728   13.852 0.003978
 133.900   -2.308   13.852 0.005397
 133.900  -24.778   19.412 0.003835
 133.900  -18.358   19.412 0.018889
 133.900  -11.938   19.412 0.007519
 133.900   -5.518   19.412 0.021321
 133.900  -27.988   24.972 0.000362
 133.900  -21.568   24.972 0.003602
 133.900  -15.148   24.972 0.009325
 133.900   -8.728   24.972 0.013263
 133.900   -2.308   24.972 0.021928
 133.900  -24.778   30.532 0.000006
 133.900  -18.358   30.532 0.000511
 133.900   -5.518   30.532 0.001130
 130.991   -8.828   -2.871 0.007290
 130.991   -2.308   -2.871 0.013794
 130.991    4.212   -2.871 0.003972
 130.991   -5.568    2.775 0.030345
 130.991    0.952    2.775 0.026741
 130.991    7.472    2.775 0.010689
 130.991  -21.868    8.422 0.006556
 130.991  -15.348    8.422 0.023644
 130.991   -8.828    8.422 0.026557
 130.991   -2.308    8.422 0.023200
 130.991    4.212    8.422 0.004684
 130.991  -25.128   14.068 0.003172
 130.991  -18.608   14.068 0.018395
 130.991  -12.088   14.068 0.004771
 130.991   -5.568   14.068 0.006218
 130.991    0.952   14.068 0.007690
 130.991    7.472   14.068 0.011777
 130.991  -28.388   19.715 0.001705
 130.991  -21.868   19.715 0.013654
 130.991  -15.348   19.715 0.024775
 130.991   -8.828   19.715 0.013797
 130.991   -2.308   19.715 0.046776
 130.991  -31.648   25.361 0.000003
 130.991  -25.128   25.361 0.001905
 130.991  -18.608   25.361 0.008306
 130.991  -12.088   25.361 0.013856
 130.991   -5.568   25.361 0.020409
 130.991    0.952   25.361 0.020112
 130.991  -28.388   31.008 0.000007
 130.991  -21.868   31.008 0.000082
 130.991  -15.348   31.008 0.000842
 130.991   -8.828   31.008 0.001224
 130.991   -2.308   31.008 0.000997
 130.991    4.212   31.008 0.000432
 127.861    1.009  -20.156 0.045193
 127.861   -8.941  -14.411 0.009241
 127.861   -2.308  -14.411 0.012847
 127.861  -12.258   -8.666 0.013397
 127.861   -5.625   -8.666 0.009459
 127.861    1.009   -8.666 0.007166
 127.861    7.643   -8.666 0.019719
 127.861   14.277   -8.666 0.016979
 127.861  -22.209   -2.921 0.005975
 127.861   -8.941   -2.921 0.009820
 127.861   -2.308   -2.921 0.016593
 127.861    4.326   -2.921 0.006001
 127.861   10.960   -2.921 0.015204
 127.861   17.594   -2.921 0.007408
 127.861  -25.526    2.824 0.002602
 127.861  -12.258    2.824 0.028776
 127.861   -5.625    2.824 0.050297
 127.861    1.009    2.824 0.035019
 127.861    7.643    2.824 0.017852
 127.861   14.277    2.824 0.057644
 127.861  -22.209    8.569 0.010290
 127.861  -15.575    8.569 0.034713
 127.861   -8.941    8.569 0.043841
 127.861   -2.308    8.569 0.039137
 127.861    4.326    8.569 0.009465
 127.861   10.960    8.569 0.020726
 127.861  -32.160   14.315 0.000064
 127.861  -25.526   14.315 0.004196
 127.861  -18.892   14.315 0.040077
 127.861  -12.258   14.315 0.024749
 127.861   -5.625   14.315 0.038840
 127.861    1.009   14.315 0.015528
 127.861    7.643   14.315 0.014351
 127.861  -28.843   20.060 0.002094
 127.861  -22.209   20.060 0.022014
 127.861  -15.575   20.060 0.054072
 127.861   -8.941   20.060 0.051957
 127.861   -2.308   20.060 0.093989
 127.861    4.326   20.060 0.047359
 127.861  -32.160   25.805 0.000009
 127.861  -25.526   25.805 0.002227
 127.861  -18.892   25.805 0.011899
 127.861  -12.258   25.805 0.019651
 127.861   -5.625   25.805 0.030940
 127.861    1.009   25.805 0.027420
 127.861    7.643   25.805 0.009869
 124.699   -5.684  -20.516 0.061764
 124.699    1.069  -20.516 0.057274
 124.699   14.574  -20.516 0.005011
 124.699  -15.813  -14.668 0.012046
 124.699   -9.060  -14.668 0.014141
 124.699   -2.308  -14.668 0.041404
 124.699    4.445  -14.668 0.042799
 124.699   11.197  -14.668 0.028130
 124.699   17.950  -14.668 0.010071
 124.699  -25.941   -8.820 0.002718
 124.699  -19.189   -8.820 0.015459
 124.699  -12.436   -8.820 0.018529
 124.699   -5.684   -8.820 0.014844
 124.699    1.069   -8.820 0.012903
 124.699    7.821   -8.820 0.030327
 124.699   14.574   -8.820 0.018473
 124.699  -22.565   -2.972 0.006603
 124.699  -15.813   -2.972 0.018152
 124.699   -9.060   -2.972 0.020068
 124.699   -2.308   -2.972 0.032480
 124.699    4.445   -2.972 0.161355
 124.699   11.197   -2.972 0.063441
 124.699   17.950   -2.972 0.008311
 124.699  -25.941    2.876 0.002963
 124.699  -19.189    2.876 0.016021
 124.699  -12.436    2.876 0.047349
 124.699   -5.684    2.876 0.114914
 124.699    1.069    2.876 0.096625
 124.699    7.821    2.876 0.100863
 124.699   14.574    2.876 0.100742
 124.699  -22.565    8.724 0.013302
 124.699  -15.813    8.724 0.029767
 124.699   -9.060    8.724 0.033243
 124.699   -2.308    8.724 0.077746
 124.699    4.445    8.724 0.018369
 124.699   11.197    8.724 0.042432
 124.699   17.950    8.724 0.032711
 124.699   24.702    8.724 0.002595
 124.699  -32.694   14.571 0.000539
 124.699  -25.941   14.571 0.006497
 124.699  -19.189   14.571 0.070854
 124.699  -12.436   14.571 0.033052
 124.699   -5.684   14.571 0.238913
 124.699    1.069   14.571 0.015446
 124.699    7.821   14.571 0.390753
 124.699   14.574   14.571 0.038358
 124.699  -29.317   20.419 0.003117
 124.699  -22.565   20.419 0.041273
 124.699  -15.813   20.419 0.109434
 124.699   -9.060   20.419 0.024560
 124.699   -2.308   20.419 0.075832
 124.699    4.445   20.419 0.059707
 124.699  -32.694   26.267 0.000021
 124.699  -25.941   26.267 0.003260
 124.699  -19.189   26.267 0.025353
 124.699  -12.436   26.267 0.023024
 124.699   -5.684   26.267 0.026392
 124.699    1.069   26.267 0.024957
 121.622   -2.308  -26.830 0.022402
 121.622  -26.361  -20.879 0.003169
 121.622  -12.616  -20.879 0.053763
 121.622   -5.744  -20.879 0.095406
 121.622    1.129  -20.879 0.086545
 121.622    8.001  -20.879 0.014050
 121.622   14.873  -20.879 0.005005
 121.622  -22.925  -14.927 0.008059
 121.622  -16.052  -14.927 0.056106
 121.622   -9.180  -14.927 0.086863
 121.622   -2.308  -14.927 0.118354
 121.622    4.565  -14.927 0.090643
 121.622   11.437  -14.927 0.033741
 121.622   18.309  -14.927 0.010210
 121.622  -26.361   -8.976 0.002883
 121.622  -19.488   -8.976 0.023439
 121.622  -12.616   -8.976 0.048985
 121.622   -5.744   -8.976 0.075017
 121.622    1.129   -8.976 0.083328
 121.622    8.001   -8.976 0.067521
 121.622   14.873   -8.976 0.019104
 121.622   21.746   -8.976 0.004932
 121.622  -22.925   -3.024 0.007703
 121.622  -16.052   -3.024 0.044910
 121.622   -9.180   -3.024 0.210461
 121.622   -2.308   -3.024 0.038084
 121.622    4.565   -3.024 0.021233
 121.622   11.437   -3.024 0.081000
 121.622   18.309   -3.024 0.008196
 121.622  -26.361    2.928 0.003041
 121.622  -19.488    2.928 0.018196
 121.622  -12.616    2.928 0.037102
 121.622   -5.744    2.928 0.025984
 121.622    1.129    2.928 0.031452
 121.622    8.001    2.928 0.031155
 121.622   14.873    2.928 0.112651
 121.622  -29.797    8.879 0.000958
 121.622  -22.925    8.879 0.004923
 121.622  -16.052    8.879 0.024304
 121.622   -9.180    8.879 0.004676
 121.622   -2.308    8.879 0.006244
 121.622    4.565    8.879 0.013298
 121.622   11.437    8.879 0.045835
 121.622   18.309    8.879 0.055617
 121.622   25.182    8.879 0.002421
 121.622  -33.233   14.831 0.000005
 121.622  -26.361   14.831 0.003291
 121.622  -19.488   14.831 0.006050
 121.622  -12.616   14.831 0.003409
 121.622   -5.744   14.831 0.003780
 121.622    1.129   14.831 0.005913
 121.622    8.001   14.831 0.048245
 121.622   14.873   14.831 0.075901
 121.622  -29.797   20.783 0.001319
 121.622  -22.925   20.783 0.005984
 121.622  -16.052   20.783 0.008451
 121.622   -9.180   20.783 0.015911
 121.622   -2.308   20.783 0.086351
 121.622    4.565   20.783 0.073605
 121.622   11.437   20.783 0.059754
 121.622  -33.233   26.734 0.000017
 121.622  -26.361   26.734 0.001246
 121.622  -19.488   26.734 0.004283
 121.622  -12.616   26.734 0.009553
 121.622   -5.744   26.734 0.027292
 121.622    1.129   26.734 0.030446
 121.622    8.001   26.734 0.008319
 118.484   -5.807  -30.352 0.003855
 118.484    1.192  -30.352 0.003434
 118.484    8.190  -30.352 0.000932
 118.484  -23.302  -24.291 0.004118
 118.484   -9.306  -24.291 0.023155
 118.484   -2.308  -24.291 0.035075
 118.484    4.691  -24.291 0.009449
 118.484   11.689  -24.291 0.003384
 118.484  -26.802  -18.230 0.004007
 118.484  -19.803  -18.230 0.027690
 118.484  -12.805  -18.230 0.131078
 118.484   -5.807  -18.230 0.078936
 118.484    1.192  -18.230 0.080306
 118.484    8.190  -18.230 0.022741
 118.484   15.188  -18.230 0.013019
 118.484  -23.302  -12.170 0.011617
 118.484  -16.304  -12.170 0.058330
 118.484   -9.306  -12.170 0.014045
 118.484   -2.308  -12.170 0.000484
 118.484    4.691  -12.170 0.046186
 118.484   11.689  -12.170 0.042308
 118.484   18.687  -12.170 0.012321
 118.484  -26.802   -6.109 0.002873
 118.484  -19.803   -6.109 0.032262
 118.484  -12.805   -6.109 0.033232
 118.484   -5.807   -6.109 0.006542
 118.484    1.192   -6.109 0.002220
 118.484    8.190   -6.109 0.017588
 118.484   15.188   -6.109 0.012182
 118.484   22.186   -6.109 0.004452
 118.484  -30.301   -0.048 0.000740
 118.484  -23.302   -0.048 0.006774
 118.484  -16.304   -0.048 0.067743
 118.484   -9.306   -0.048 0.011864
 118.484   -2.308   -0.048 0.010645
 118.484    4.691   -0.048 0.004028
 118.484   11.689   -0.048 0.021509
 118.484   18.687   -0.048 0.014734
 118.484  -26.802    6.013 0.001760
 118.484  -19.803    6.013 0.019404
 118.484  -12.805    6.013 0.045890
 118.484   -5.807    6.013 0.009700
 118.484    1.192    6.013 0.000474
 118.484    8.190    6.013 0.004260
 118.484   15.188    6.013 0.054880
 118.484   22.186    6.013 0.009660
 118.484  -30.301   12.073 0.000014
 118.484  -23.302   12.073 0.000373
 118.484  -16.304   12.073 0.028278
 118.484   -9.306   12.073 0.029327
 118.484   -2.308   12.073 0.000485
 118.484    4.691   12.073 0.000064
 118.484   11.689   12.073 0.016417
 118.484   18.687   12.073 0.035104
 118.484   25.686   12.073 0.001155
 118.484  -33.800   18.134 0.000002
 118.484  -26.802   18.134 0.000056
 118.484  -19.803   18.134 0.000651
 118.484  -12.805   18.134 0.026015
 118.484   -5.807   18.134 0.033272
 118.484    1.192   18.134 0.007280
 118.484    8.190   18.134 0.073040
 118.484   15.188   18.134 0.082877
 118.484   22.186   18.134 0.002681
 118.484  -30.301   24.195 0.000002
 118.484  -23.302   24.195 0.000031
 118.484  -16.304   24.195 0.002603
 118.484   -9.306   24.195 0.017529
 118.484   -2.308   24.195 0.034010
 118.484    4.691   24.195 0.043971
 118.484   11.689   24.195 0.039983
 118.484   25.686   24.195 0.000026
 118.484  -26.802   30.255 0.000002
 118.484  -12.805   30.255 0.000732
 118.484   -5.807   30.255 0.001509
 118.484    1.192   30.255 0.003805
 118.484    8.190   30.255 0.003571
 118.484   15.188   30.255 0.001657
 116.873  -19.961  -30.624 0.001044
 116.873   -5.838  -30.624 0.003972
 116.873    1.223  -30.624 0.003451
 116.873    8.284  -30.624 0.000963
 116.873  -23.491  -24.509 0.004200
 116.873   -9.369  -24.509 0.020524
 116.873   -2.308  -24.509 0.032380
 116.873    4.754  -24.509 0.010002
 116.873   11.815  -24.509 0.003720
 116.873  -27.022  -18.394 0.004120
 116.873  -19.961  -18.394 0.036358
 116.873  -12.899  -18.394 0.085573
 116.873   -5.838  -18.394 0.023971
 116.873    1.223  -18.394 0.049281
 116.873    8.284  -18.394 0.030592
 116.873   15.345  -18.394 0.017002
 116.873  -23.491  -12.279 0.012949
 116.873  -16.430  -12.279 0.034733
 116.873   -9.369  -12.279 0.003907
 116.873   -2.308  -12.279 0.000991
 116.873    4.754  -12.279 0.027225
 116.873   11.815  -12.279 0.073794
 116.873   18.876  -12.279 0.017949
 116.873  -27.022   -6.163 0.003274
 116.873  -19.961   -6.163 0.036465
 116.873  -12.899   -6.163 0.024544
 116.873   -5.838   -6.163 0.006852
 116.873    1.223   -6.163 0.007547
 116.873    8.284   -6.163 0.061711
 116.873   15.345   -6.163 0.042499
 116.873   22.407   -6.163 0.005531
 116.873  -30.552   -0.048 0.001099
 116.873  -23.491   -0.048 0.011463
 116.873  -16.430   -0.048 0.077361
 116.873   -9.369   -0.048 0.014638
 116.873   -2.308   -0.048 0.018293
 116.873    4.754   -0.048 0.018599
 116.873   11.815   -0.048 0.050272
 116.873   18.876   -0.048 0.015343
 116.873  -27.022    6.067 0.002591
 116.873  -19.961    6.067 0.012822
 116.873  -12.899    6.067 0.028235
 116.873   -5.838    6.067 0.017240
 116.873    1.223    6.067 0.005808
 116.873    8.284    6.067 0.000063
 116.873   15.345    6.067 0.040870
 116.873   22.407    6.067 0.007573
 116.873  -30.552   12.182 0.000003
 116.873  -23.491   12.182 0.000201
 116.873  -16.430   12.182 0.003917
 116.873   -9.369   12.182 0.009723
 116.873   -2.308   12.182 0.002239
 116.873    4.754   12.182 0.000052
 116.873   11.815   12.182 0.003135
 116.873   18.876   12.182 0.021518
 116.873   25.937   12.182 0.000628
 116.873  -27.022   18.297 0.000000
 116.873  -19.961   18.297 0.000039
 116.873  -12.899   18.297 0.002539
 116.873   -5.838   18.297 0.001219
 116.873    1.223   18.297 0.000435
 116.873    8.284   18.297 0.037241
 116.873   15.345   18.297 0.077091
 116.873   22.407   18.297 0.002033
 116.873  -30.552   24.413 0.000003
 116.873  -23.491   24.413 0.000000
 116.873  -16.430   24.413 0.000031
 116.873   -9.369   24.413 0.000957
 116.873   -2.308   24.413 0.003951
 116.873    4.754   24.413 0.022413
 116.873   11.815   24.413 0.033760
 116.873   25.937   24.413 0.000012
 116.873  -12.899   30.528 0.000000
 116.873   -5.838   30.528 0.000007
 116.873    1.223   30.528 0.000737
 116.873    8.284   30.528 0.002663
 116.873   15.345   30.528 0.001659
 113.514  -23.906  -31.223 0.000297
 113.514  -16.707  -31.223 0.002509
 113.514   -9.507  -31.223 0.007272
 113.514   -2.308  -31.223 0.013512
 113.514    4.892  -31.223 0.003542
 113.514   12.092  -31.223 0.000316
 113.514  -27.506  -24.988 0.001749
 113.514  -20.307  -24.988 0.007363
 113.514  -13.107  -24.988 0.016548
 113.514   -5.907  -24.988 0.051503
 113.514    1.292  -24.988 0.049513
 113.514    8.492  -24.988 0.008529
 113.514   15.691  -24.988 0.002427
 113.514  -23.906  -18.753 0.008133
 113.514  -16.707  -18.753 0.241127
 113.514   -9.507  -18.753 0.029581
 113.514   -2.308  -18.753 0.053253
 113.514    4.892  -18.753 0.067182
 113.514   12.092  -18.753 0.021424
 113.514   19.291  -18.753 0.006237
 113.514  -27.506  -12.518 0.003790
 113.514  -20.307  -12.518 0.012948
 113.514  -13.107  -12.518 0.004435
 113.514   -5.907  -12.518 0.000932
 113.514    1.292  -12.518 0.001202
 113.514    8.492  -12.518 0.060014
 113.514   15.691  -12.518 0.036072
 113.514   22.891  -12.518 0.005662
 113.514  -31.106   -6.283 0.000716
 113.514  -23.906   -6.283 0.014967
 113.514  -16.707   -6.283 0.015399
 113.514   -9.507   -6.283 0.001251
 113.514   -2.308   -6.283 0.000662
 113.514    4.892   -6.283 0.001221
 113.514   12.092   -6.283 0.064365
 113.514   19.291   -6.283 0.010419
 113.514   26.491   -6.283 0.002242
 113.514  -27.506   -0.048 0.004390
 113.514  -20.307   -0.048 0.042951
 113.514  -13.107   -0.048 0.025454
 113.514   -5.907   -0.048 0.007960
 113.514    1.292   -0.048 0.013837
 113.514    8.492   -0.048 0.016897
 113.514   15.691   -0.048 0.055193
 113.514   22.891   -0.048 0.006939
 113.514  -31.106    6.187 0.000001
 113.514  -23.906    6.187 0.008495
 113.514  -16.707    6.187 0.016865
 113.514   -9.507    6.187 0.011007
 113.514   -2.308    6.187 0.006533
 113.514    4.892    6.187 0.001504
 113.514   12.092    6.187 0.014618
 113.514   19.291    6.187 0.033417
 113.514   26.491    6.187 0.002920
 113.514  -27.506   12.422 0.000003
 113.514  -20.307   12.422 0.000364
 113.514  -13.107   12.422 0.010294
 113.514   -5.907   12.422 0.007676
 113.514    1.292   12.422 0.000428
 113.514    8.492   12.422 0.009205
 113.514   15.691   12.422 0.042529
 113.514   22.891   12.422 0.006626
 113.514  -23.906   18.657 0.000002
 113.514   -9.507   18.657 0.010063
 113.514   -2.308   18.657 0.007846
 113.514    4.892   18.657 0.018771
 113.514   12.092   18.657 0.145083
 113.514   19.291   18.657 0.014067
 113.514   26.491   18.657 0.000047
 113.514   -5.907   24.892 0.002217
 113.514    1.292   24.892 0.008276
 113.514    8.492   24.892 0.022393
 113.514   15.691   24.892 0.012466
 113.514   22.891   24.892 0.000962
 113.514   -9.507   31.127 0.000002
 113.514   -2.308   31.127 0.000013
 113.514    4.892   31.127 0.000999
 113.514   12.092   31.127 0.001907
 113.514   19.291   31.127 0.000279
 113.514   26.491   31.127 0.000004
 110.042  -28.133  -25.608 0.001725
 110.042  -20.754  -25.608 0.005544
 110.042  -13.375  -25.608 0.012002
 110.042   -5.997  -25.608 0.028640
 110.042    1.382  -25.608 0.024906
 110.042    8.760  -25.608 0.004814
 110.042   16.139  -25.608 0.001627
 110.042  -31.822  -19.218 0.001354
 110.042  -24.443  -19.218 0.008233
 110.042  -17.065  -19.218 0.071874
 110.042   -9.686  -19.218 0.010759
 110.042   -2.308  -19.218 0.043515
 110.042    5.071  -19.218 0.054680
 110.042   12.450  -19.218 0.012543
 110.042   19.828  -19.218 0.005396
 110.042  -28.133  -12.828 0.004295
 110.042  -20.754  -12.828 0.019245
 110.042  -13.375  -12.828 0.001712
 110.042   -5.997  -12.828 0.001986
 110.042    1.382  -12.828 0.001880
 110.042    8.760  -12.828 0.015034
 110.042   16.139  -12.828 0.029864
 110.042   23.517  -12.828 0.005849
 110.042  -31.822   -6.438 0.000385
 110.042  -24.443   -6.438 0.004941
 110.042  -17.065   -6.438 0.009562
 110.042   -9.686   -6.438 0.005234
 110.042   -2.308   -6.438 0.001698
 110.042    5.071   -6.438 0.000068
 110.042   12.450   -6.438 0.043796
 110.042   19.828   -6.438 0.019310
 110.042   27.207   -6.438 0.002988
 110.042  -28.133   -0.048 0.000006
 110.042  -20.754   -0.048 0.002813
 110.042  -13.375   -0.048 0.006948
 110.042   -5.997   -0.048 0.021349
 110.042    1.382   -0.048 0.004331
 110.042    8.760   -0.048 0.013433
 110.042   16.139   -0.048 0.075380
 110.042   23.517   -0.048 0.011134
 110.042  -31.822    6.342 0.000002
 110.042  -24.443    6.342 0.000030
 110.042  -17.065    6.342 0.000320
 110.042   -9.686    6.342 0.010829
 110.042   -2.308    6.342 0.005007
 110.042    5.071    6.342 0.000104
 110.042   12.450    6.342 0.019591
 110.042   19.828    6.342 0.046391
 110.042   27.207    6.342 0.004022
 110.042  -13.375   12.732 0.005873
 110.042   -5.997   12.732 0.029135
 110.042    1.382   12.732 0.000134
 110.042    8.760   12.732 0.001686
 110.042   16.139   12.732 0.064495
 110.042   23.517   12.732 0.008916
 110.042   -2.308   19.122 0.011377
 110.042    5.071   19.122 0.003297
 110.042   12.450   19.122 0.060007
 110.042   19.828   19.122 0.010632
 110.042   27.207   19.122 0.001055
 110.042   -5.997   25.512 0.000817
 110.042    1.382   25.512 0.000030
 110.042    8.760   25.512 0.003137
 110.042   16.139   25.512 0.004312
 110.042   23.517   25.512 0.000915
 106.527  -29.094  -26.560 0.002584
 106.527  -21.441  -26.560 0.008951
 106.527  -13.787  -26.560 0.019027
 106.527   -6.134  -26.560 0.017798
 106.527    1.519  -26.560 0.016419
 106.527    9.172  -26.560 0.004047
 106.527   16.825  -26.560 0.001718
 106.527  -25.267  -19.932 0.013519
 106.527  -17.614  -19.932 0.061646
 106.527   -9.961  -19.932 0.003721
 106.527   -2.308  -19.932 0.007835
 106.527    5.346  -19.932 0.012122
 106.527   12.999  -19.932 0.017727
 106.527   20.652  -19.932 0.005534
 106.527  -29.094  -13.304 0.006730
 106.527  -21.441  -13.304 0.019409
 106.527  -13.787  -13.304 0.002273
 106.527   -6.134  -13.304 0.000436
 106.527    1.519  -13.304 0.000538
 106.527    9.172  -13.304 0.022509
 106.527   16.825  -13.304 0.033962
 106.527   24.479  -13.304 0.005647
 106.527  -32.920   -6.676 0.001536
 106.527  -25.267   -6.676 0.014129
 106.527  -17.614   -6.676 0.014054
 106.527   -9.961   -6.676 0.001946
 106.527   -2.308   -6.676 0.000180
 106.527    5.346   -6.676 0.001104
 106.527   12.999   -6.676 0.047392
 106.527   20.652   -6.676 0.013366
 106.527   28.305   -6.676 0.001606
 106.527  -29.094   -0.048 0.002028
 106.527  -21.441   -0.048 0.017618
 106.527  -13.787   -0.048 0.025051
 106.527   -6.134   -0.048 0.010171
 106.527    1.519   -0.048 0.001012
 106.527    9.172   -0.048 0.000282
 106.527   16.825   -0.048 0.020817
 106.527   24.479   -0.048 0.004121
 106.527  -25.267    6.580 0.000395
 106.527   -9.961    6.580 0.020183
 106.527   -2.308    6.580 0.018125
 106.527    5.346    6.580 0.000626
 106.527   12.999    6.580 0.006178
 106.527   20.652    6.580 0.014463
 106.527   28.305    6.580 0.002310
 106.527   -6.134   13.208 0.009182
 106.527    1.519   13.208 0.015884
 106.527    9.172   13.208 0.010853
 106.527   16.825   13.208 0.025322
 106.527   24.479   13.208 0.005345
 106.527   -2.308   19.835 0.014356
 106.527    5.346   19.835 0.049243
 106.527   12.999   19.835 0.037156
 106.527   20.652   19.835 0.007485
 106.527   28.305   19.835 0.000950
 106.527    9.172   26.463 0.005192
 106.527   16.825   26.463 0.003381
 106.527   24.479   26.463 0.000675
 102.992  -26.332  -31.256 0.000225
 102.992  -18.324  -31.256 0.002152
 102.992  -10.316  -31.256 0.007511
 102.992   -2.308  -31.256 0.008469
 102.992    5.700  -31.256 0.000711
 102.992   13.709  -31.256 0.000002
 102.992  -30.336  -24.321 0.000676
 102.992  -22.328  -24.321 0.009574
 102.992  -14.320  -24.321 0.032073
 102.992   -6.312  -24.321 0.035577
 102.992    1.696  -24.321 0.006895
 102.992    9.705  -24.321 0.000001
 102.992   17.713  -24.321 0.000003
 102.992  -26.332  -17.386 0.006348
 102.992  -18.324  -17.386 0.022250
 102.992  -10.316  -17.386 0.015539
 102.992   -2.308  -17.386 0.000891
 102.992    5.700  -17.386 0.000117
 102.992   13.709  -17.386 0.000006
 102.992   21.717  -17.386 0.000007
 102.992  -30.336  -10.451 0.000005
 102.992  -22.328  -10.451 0.002726
 102.992  -14.320  -10.451 0.000159
 102.992   -6.312  -10.451 0.000463
 102.992    1.696  -10.451 0.000422
 102.992    9.705  -10.451 0.000770
 102.992   17.713  -10.451 0.001290
 102.992   25.721  -10.451 0.000006
 102.992  -26.332   -3.516 0.000005
 102.992  -18.324   -3.516 0.000028
 102.992  -10.316   -3.516 0.003357
 102.992   -2.308   -3.516 0.043844
 102.992    5.700   -3.516 0.012767
 102.992   13.709   -3.516 0.009951
 102.992   21.717   -3.516 0.002827
 102.992  -30.336    3.419 0.000002
 102.992  -14.320    3.419 0.000009
 102.992   -6.312    3.419 0.059396
 102.992    1.696    3.419 0.075544
 102.992    9.705    3.419 0.009875
 102.992   17.713    3.419 0.007253
 102.992   25.721    3.419 0.000949
 102.992    5.700   10.355 0.002658
 102.992   13.709   10.355 0.000466
 102.992   21.717   10.355 0.000860
 102.992    9.705   17.290 0.043077
 102.992   17.713   17.290 0.002911
 102.992   25.721   17.290 0.000500
 102.992    5.700   24.225 0.024003
 102.992   13.709   24.225 0.004716
 102.992   21.717   24.225 0.001303
 102.992   17.713   31.160 0.000414
 102.992   25.721   31.160 0.000008
  99.371  -27.437  -25.438 0.000003
  99.371  -19.060  -25.438 0.000508
  99.371  -10.684  -25.438 0.001960
  99.371   -2.308  -25.438 0.001877
  99.371    6.069  -25.438 0.000623
  99.371   14.445  -25.438 0.000005
  99.371  -31.625  -18.183 0.000006
  99.371  -23.248  -18.183 0.000011
  99.371  -14.872  -18.183 0.001795
  99.371   -6.496  -18.183 0.021848
  99.371    1.881  -18.183 0.004050
  99.371   10.257  -18.183 0.001896
  99.371   18.633  -18.183 0.000005
  99.371  -27.437  -10.929 0.000005
  99.371  -19.060  -10.929 0.000075
  99.371  -10.684  -10.929 0.032786
  99.371   -2.308  -10.929 0.048193
  99.371    6.069  -10.929 0.015376
  99.371   14.445  -10.929 0.003264
  99.371   22.821  -10.929 0.000164
  99.371    1.881   -3.675 0.047009
  99.371   10.257   -3.675 0.018345
  99.371   18.633   -3.675 0.002739
  99.371   27.010   -3.675 0.000001
  99.371   14.445    3.579 0.005483
  99.371   22.821    3.579 0.000556
  99.371   10.257   10.833 0.037901
  99.371   18.633   10.833 0.003609
  99.371   27.010   10.833 0.000008
  99.371   14.445   18.087 0.034746
  99.371   22.821   18.087 0.002153
  99.371   10.257   25.341 0.020331
  99.371   18.633   25.341 0.003543
  99.371   27.010   25.341 0.000009
