# patient_id 558-76-49
# patient_first_name JERELYN
# patient_middle_initial _
# patient_last_name ROBERTS
# astroid_id 82786
# course_name 1st
# beam_name 310A1
# gantry 310
# couch_rotation -0
# gigaproton_total    7.911
# rows_total 561
# E(MeV)    X(mm)    Y(mm)    N(Gp)
 111.782    4.141   12.601 0.001720
 111.782   11.423   12.601 0.004858
 111.782    7.782   18.908 0.005800
 111.782   29.630   18.908 0.000007
 111.782   18.706   25.215 0.001231
 110.042   11.567   -0.013 0.005101
 110.042    7.878    6.377 0.005991
 110.042  -17.947   12.767 0.003891
 110.042  -10.569   12.767 0.006098
 110.042   -3.190   12.767 0.007770
 110.042    4.189   12.767 0.002176
 110.042   11.567   12.767 0.005030
 110.042   18.946   12.767 0.024353
 110.042   22.635   19.157 0.001823
 110.042   30.013   19.157 0.000007
 110.042   -3.190   25.547 0.013372
 110.042   18.946   25.547 0.001136
 106.527  -10.981   -0.013 0.042084
 106.527   -3.327   -0.013 0.044485
 106.527   11.979   -0.013 0.006261
 106.527  -22.460    6.615 0.001221
 106.527  -14.807    6.615 0.003567
 106.527   -7.154    6.615 0.008873
 106.527    8.152    6.615 0.011559
 106.527   15.806    6.615 0.038596
 106.527   23.459    6.615 0.006512
 106.527  -18.634   13.243 0.004422
 106.527  -10.981   13.243 0.007574
 106.527   -3.327   13.243 0.010556
 106.527    4.326   13.243 0.003865
 106.527   11.979   13.243 0.005784
 106.527   19.632   13.243 0.021998
 106.527   27.285   13.243 0.002023
 106.527  -22.460   19.871 0.004244
 106.527  -14.807   19.871 0.034413
 106.527   -7.154   19.871 0.028899
 106.527    0.499   19.871 0.015191
 106.527    8.152   19.871 0.006467
 106.527   15.806   19.871 0.004338
 106.527   23.459   19.871 0.001556
 106.527  -18.634   26.499 0.003742
 106.527  -10.981   26.499 0.005567
 106.527   -3.327   26.499 0.013748
 106.527   11.979   26.499 0.003793
 106.527   19.632   26.499 0.000824
 104.765   -7.325   -6.789 0.006041
 104.765    8.324   -6.789 0.022203
 104.765  -19.062   -0.013 0.020353
 104.765  -11.238   -0.013 0.048538
 104.765   -3.413   -0.013 0.062393
 104.765   12.236   -0.013 0.007944
 104.765  -22.975    6.764 0.001284
 104.765  -15.150    6.764 0.004107
 104.765   -7.325    6.764 0.011971
 104.765    8.324    6.764 0.018678
 104.765   16.149    6.764 0.044006
 104.765   23.973    6.764 0.006399
 104.765  -19.062   13.540 0.004752
 104.765  -11.238   13.540 0.009038
 104.765   -3.413   13.540 0.015039
 104.765    4.412   13.540 0.005476
 104.765   12.236   13.540 0.014250
 104.765   20.061   13.540 0.020165
 104.765  -22.975   20.317 0.003931
 104.765  -15.150   20.317 0.031023
 104.765   -7.325   20.317 0.051151
 104.765    0.499   20.317 0.033188
 104.765    8.324   20.317 0.007213
 104.765   16.149   20.317 0.004314
 104.765   23.973   20.317 0.001426
 104.765  -19.062   27.093 0.003335
 104.765  -11.238   27.093 0.005493
 104.765   -3.413   27.093 0.014574
 104.765   12.236   27.093 0.003484
 104.765   20.061   27.093 0.000642
 101.201  -15.887  -10.655 0.009587
 101.201   -7.694  -10.655 0.009586
 101.201    8.692  -10.655 0.051289
 101.201  -19.983   -3.560 0.020032
 101.201  -11.790   -3.560 0.079753
 101.201   -3.597   -3.560 0.060950
 101.201    4.596   -3.560 0.053933
 101.201   12.789   -3.560 0.025907
 101.201   20.982   -3.560 0.004608
 101.201  -24.079    3.535 0.002614
 101.201  -15.887    3.535 0.014451
 101.201   -7.694    3.535 0.086740
 101.201    0.499    3.535 0.095179
 101.201    8.692    3.535 0.051260
 101.201   16.885    3.535 0.036914
 101.201   25.078    3.535 0.004601
 101.201  -19.983   10.630 0.003340
 101.201  -11.790   10.630 0.119128
 101.201   -3.597   10.630 0.014780
 101.201    4.596   10.630 0.175786
 101.201   12.789   10.630 0.024082
 101.201   20.982   10.630 0.020910
 101.201   29.174   10.630 0.001997
 101.201  -24.079   17.726 0.003326
 101.201  -15.887   17.726 0.014437
 101.201   -7.694   17.726 0.369484
 101.201    0.499   17.726 0.196492
 101.201    8.692   17.726 0.005242
 101.201   16.885   17.726 0.004448
 101.201   25.078   17.726 0.002129
 101.201  -19.983   24.821 0.004930
 101.201  -11.790   24.821 0.011237
 101.201   -3.597   24.821 0.018877
 101.201    4.596   24.821 0.008147
 101.201   12.789   24.821 0.003454
 101.201   20.982   24.821 0.000888
 101.201   29.174   24.821 0.000005
  99.371  -12.065  -18.148 0.060901
  99.371  -24.630  -10.894 0.003362
  99.371  -16.253  -10.894 0.008729
  99.371   -7.877  -10.894 0.011374
  99.371    8.876  -10.894 0.044922
  99.371   17.252  -10.894 0.013910
  99.371  -20.442   -3.640 0.009213
  99.371  -12.065   -3.640 0.157922
  99.371   -3.689   -3.640 0.138165
  99.371    4.687   -3.640 0.033076
  99.371   13.064   -3.640 0.009244
  99.371   21.440   -3.640 0.003678
  99.371  -24.630    3.614 0.001544
  99.371  -16.253    3.614 0.003644
  99.371   -7.877    3.614 0.006003
  99.371    0.499    3.614 0.003482
  99.371    8.876    3.614 0.000143
  99.371   17.252    3.614 0.005861
  99.371   25.628    3.614 0.003532
  99.371  -20.442   10.869 0.000795
  99.371  -12.065   10.869 0.001687
  99.371   -3.689   10.869 0.001573
  99.371    4.687   10.869 0.000028
  99.371   13.064   10.869 0.000019
  99.371   21.440   10.869 0.008033
  99.371   29.816   10.869 0.001551
  99.371  -24.630   18.123 0.002324
  99.371  -16.253   18.123 0.034305
  99.371   -7.877   18.123 0.075300
  99.371    0.499   18.123 0.002891
  99.371    8.876   18.123 0.000015
  99.371   17.252   18.123 0.001671
  99.371   25.628   18.123 0.001587
  99.371  -20.442   25.377 0.003901
  99.371  -12.065   25.377 0.014786
  99.371   -3.689   25.377 0.012114
  99.371    4.687   25.377 0.004564
  99.371   13.064   25.377 0.001971
  99.371   21.440   25.377 0.000635
  99.371   29.816   25.377 0.000006
  97.519  -12.380  -18.602 0.075422
  97.519   -3.794  -18.602 0.085306
  97.519  -25.260  -11.167 0.003353
  97.519  -16.673  -11.167 0.022426
  97.519   -8.087  -11.167 0.137979
  97.519    0.499  -11.167 0.022983
  97.519    9.086  -11.167 0.047874
  97.519   17.672  -11.167 0.010751
  97.519  -20.966   -3.731 0.014562
  97.519  -12.380   -3.731 0.130971
  97.519   -3.794   -3.731 0.020172
  97.519    4.792   -3.731 0.043166
  97.519   13.379   -3.731 0.025316
  97.519   21.965   -3.731 0.003522
  97.519  -25.260    3.705 0.002292
  97.519  -16.673    3.705 0.011297
  97.519   -8.087    3.705 0.005807
  97.519    0.499    3.705 0.002108
  97.519    9.086    3.705 0.002715
  97.519   17.672    3.705 0.042291
  97.519   26.258    3.705 0.003658
  97.519  -20.966   11.141 0.005381
  97.519  -12.380   11.141 0.096136
  97.519   -3.794   11.141 0.000013
  97.519    4.792   11.141 0.000020
  97.519   13.379   11.141 0.034019
  97.519   21.965   11.141 0.044947
  97.519   30.551   11.141 0.001617
  97.519  -25.260   18.577 0.002830
  97.519  -16.673   18.577 0.081757
  97.519   -8.087   18.577 0.016528
  97.519    0.499   18.577 0.000015
  97.519    9.086   18.577 0.000033
  97.519   17.672   18.577 0.023899
  97.519   26.258   18.577 0.006322
  97.519  -20.966   26.013 0.004338
  97.519  -12.380   26.013 0.017352
  97.519   -3.794   26.013 0.002851
  97.519    4.792   26.013 0.002521
  97.519   13.379   26.013 0.003186
  97.519   21.965   26.013 0.001393
  97.519   30.551   26.013 0.000012
  93.706  -17.569  -23.484 0.017997
  93.706   -8.535  -23.484 0.066972
  93.706  -22.087  -15.660 0.007340
  93.706  -13.052  -15.660 0.077897
  93.706   -4.018  -15.660 0.100494
  93.706    5.016  -15.660 0.036678
  93.706   14.051  -15.660 0.008715
  93.706   23.085  -15.660 0.001801
  93.706  -26.604   -7.837 0.002997
  93.706  -17.569   -7.837 0.055548
  93.706   -8.535   -7.837 0.011996
  93.706    0.499   -7.837 0.000010
  93.706    9.534   -7.837 0.056251
  93.706   18.568   -7.837 0.002898
  93.706   27.602   -7.837 0.000958
  93.706  -22.087   -0.013 0.009708
  93.706  -13.052   -0.013 0.042539
  93.706   -4.018   -0.013 0.000025
  93.706    5.016   -0.013 0.000011
  93.706   14.051   -0.013 0.092584
  93.706   23.085   -0.013 0.003215
  93.706  -26.604    7.811 0.001503
  93.706  -17.569    7.811 0.020973
  93.706   -8.535    7.811 0.000055
  93.706    0.499    7.811 0.000011
  93.706    9.534    7.811 0.000032
  93.706   18.568    7.811 0.006079
  93.706   27.602    7.811 0.004133
  93.706  -22.087   15.635 0.005966
  93.706  -13.052   15.635 0.098640
  93.706   -4.018   15.635 0.000020
  93.706    5.016   15.635 0.000027
  93.706   14.051   15.635 0.065253
  93.706   23.085   15.635 0.019461
  93.706  -26.604   23.459 0.002246
  93.706  -17.569   23.459 0.010377
  93.706   -8.535   23.459 0.005091
  93.706    0.499   23.459 0.002741
  93.706    9.534   23.459 0.030085
  93.706   18.568   23.459 0.018682
  93.706   27.602   23.459 0.001389
  93.706  -13.052   31.283 0.001937
  93.706   -4.018   31.283 0.000992
  93.706    5.016   31.283 0.005200
  93.706   14.051   31.283 0.003391
  93.706   23.085   31.283 0.000327
  91.760  -17.932  -23.956 0.011660
  91.760   -8.717  -23.956 0.064807
  91.760  -22.540  -15.975 0.004213
  91.760  -13.324  -15.975 0.047210
  91.760   -4.109  -15.975 0.066520
  91.760    5.107  -15.975 0.062425
  91.760   14.323  -15.975 0.023193
  91.760   23.539  -15.975 0.002136
  91.760  -27.148   -7.994 0.002473
  91.760  -17.932   -7.994 0.008176
  91.760   -8.717   -7.994 0.000570
  91.760    0.499   -7.994 0.002519
  91.760    9.715   -7.994 0.028926
  91.760   18.931   -7.994 0.006093
  91.760   28.147   -7.994 0.001398
  91.760  -22.540   -0.013 0.012833
  91.760  -13.324   -0.013 0.005422
  91.760   -4.109   -0.013 0.000120
  91.760    5.107   -0.013 0.000300
  91.760   14.323   -0.013 0.005203
  91.760   23.539   -0.013 0.005010
  91.760  -27.148    7.969 0.001992
  91.760  -17.932    7.969 0.010613
  91.760   -8.717    7.969 0.000449
  91.760    0.499    7.969 0.000011
  91.760    9.715    7.969 0.000145
  91.760   18.931    7.969 0.004690
  91.760   28.147    7.969 0.003948
  91.760  -22.540   15.950 0.013138
  91.760  -13.324   15.950 0.009900
  91.760   -4.109   15.950 0.000011
  91.760    5.107   15.950 0.000022
  91.760   14.323   15.950 0.000056
  91.760   23.539   15.950 0.003484
  91.760  -27.148   23.931 0.001942
  91.760  -17.932   23.931 0.011076
  91.760   -8.717   23.931 0.000088
  91.760    0.499   23.931 0.000014
  91.760    9.715   23.931 0.000013
  91.760   18.931   23.931 0.000569
  91.760   28.147   23.931 0.000452
  89.784  -22.825  -24.251 0.003641
  89.784  -13.495  -24.251 0.024725
  89.784   -4.165  -24.251 0.046968
  89.784  -27.489  -16.172 0.001884
  89.784  -18.160  -16.172 0.007705
  89.784   -8.830  -16.172 0.246611
  89.784    0.499  -16.172 0.018575
  89.784    9.829  -16.172 0.052840
  89.784   19.158  -16.172 0.005458
  89.784  -22.825   -8.092 0.005316
  89.784  -13.495   -8.092 0.002070
  89.784   -4.165   -8.092 0.002064
  89.784    5.164   -8.092 0.010585
  89.784   14.494   -8.092 0.099205
  89.784   23.823   -8.092 0.002544
  89.784  -27.489   -0.013 0.006220
  89.784  -18.160   -0.013 0.016295
  89.784   -8.830   -0.013 0.003198
  89.784    0.499   -0.013 0.006023
  89.784    9.829   -0.013 0.003718
  89.784   19.158   -0.013 0.002573
  89.784   28.488   -0.013 0.001250
  89.784  -22.825    8.067 0.013498
  89.784  -13.495    8.067 0.042082
  89.784   -4.165    8.067 0.004024
  89.784    5.164    8.067 0.010501
  89.784   14.494    8.067 0.000774
  89.784   23.823    8.067 0.003570
  89.784  -27.489   16.147 0.002993
  89.784  -18.160   16.147 0.062156
  89.784   -8.830   16.147 0.003877
  89.784    0.499   16.147 0.009096
  89.784    9.829   16.147 0.016801
  89.784   19.158   16.147 0.001598
  89.784   28.488   16.147 0.001184
  89.784  -22.825   24.226 0.003778
  89.784  -13.495   24.226 0.006960
  89.784   -4.165   24.226 0.000492
  89.784    5.164   24.226 0.005212
  89.784   14.494   24.226 0.000239
  89.784   23.823   24.226 0.000472
  85.727  -23.072  -24.509 0.004336
  85.727  -13.644  -24.509 0.035409
  85.727   -4.215  -24.509 0.044382
  85.727   14.642  -24.509 0.003082
  85.727  -27.787  -16.344 0.002186
  85.727  -18.358  -16.344 0.016398
  85.727   -8.929  -16.344 0.012286
  85.727    0.499  -16.344 0.000893
  85.727    9.928  -16.344 0.007752
  85.727   19.357  -16.344 0.005196
  85.727   28.785  -16.344 0.000535
  85.727  -23.072   -8.178 0.021429
  85.727  -13.644   -8.178 0.010597
  85.727   -4.215   -8.178 0.000357
  85.727    5.214   -8.178 0.000789
  85.727   14.642   -8.178 0.095385
  85.727   24.071   -8.178 0.004123
  85.727  -27.787   -0.013 0.009489
  85.727  -18.358   -0.013 0.059300
  85.727   -8.929   -0.013 0.002401
  85.727    0.499   -0.013 0.000309
  85.727    9.928   -0.013 0.002357
  85.727   19.357   -0.013 0.006201
  85.727   28.785   -0.013 0.001732
  85.727  -23.072    8.153 0.007292
  85.727  -13.644    8.153 0.005882
  85.727   -4.215    8.153 0.000268
  85.727    5.214    8.153 0.015810
  85.727   14.642    8.153 0.020479
  85.727   24.071    8.153 0.003613
  85.727  -27.787   16.318 0.001420
  85.727  -18.358   16.318 0.006950
  85.727   -8.929   16.318 0.000067
  85.727    0.499   16.318 0.006727
  85.727    9.928   16.318 0.051984
  85.727   19.357   16.318 0.003536
  85.727  -23.072   24.484 0.002899
  85.727  -13.644   24.484 0.003858
  85.727   -4.215   24.484 0.001234
  85.727    5.214   24.484 0.010326
  85.727   14.642   24.484 0.004221
  85.727   24.071   24.484 0.000765
  83.640  -23.160  -24.600 0.003799
  83.640  -13.696  -24.600 0.023587
  83.640   -4.232  -24.600 0.005410
  83.640    5.231  -24.600 0.002747
  83.640   14.695  -24.600 0.002129
  83.640   24.158  -24.600 0.000141
  83.640  -27.891  -16.404 0.002724
  83.640  -18.428  -16.404 0.037348
  83.640   -8.964  -16.404 0.003411
  83.640    0.499  -16.404 0.000329
  83.640    9.963  -16.404 0.004619
  83.640   19.426  -16.404 0.003612
  83.640  -23.160   -8.208 0.018593
  83.640  -13.696   -8.208 0.011349
  83.640   -4.232   -8.208 0.000310
  83.640    5.231   -8.208 0.001936
  83.640   14.695   -8.208 0.052491
  83.640   24.158   -8.208 0.004377
  83.640  -27.891   -0.013 0.006072
  83.640  -18.428   -0.013 0.037011
  83.640   -8.964   -0.013 0.004504
  83.640    0.499   -0.013 0.001705
  83.640    9.963   -0.013 0.007534
  83.640   19.426   -0.013 0.001926
  83.640   28.890   -0.013 0.000321
  83.640  -23.160    8.183 0.003735
  83.640  -13.696    8.183 0.001928
  83.640   -4.232    8.183 0.001590
  83.640    5.231    8.183 0.011437
  83.640   14.695    8.183 0.021855
  83.640   24.158    8.183 0.003124
  83.640  -27.891   16.379 0.002128
  83.640  -18.428   16.379 0.013450
  83.640   -8.964   16.379 0.001500
  83.640    0.499   16.379 0.003564
  83.640    9.963   16.379 0.041382
  83.640   19.426   16.379 0.004535
  83.640  -23.160   24.574 0.006944
  83.640  -13.696   24.574 0.009031
  83.640   -4.232   24.574 0.000293
  83.640    5.231   24.574 0.003351
  83.640   14.695   24.574 0.004330
  83.640   24.158   24.574 0.001333
  79.329  -23.505  -24.958 0.002099
  79.329  -13.903  -24.958 0.024918
  79.329   -4.302  -24.958 0.033807
  79.329    5.300  -24.958 0.009484
  79.329   14.902  -24.958 0.001094
  79.329   24.503  -24.958 0.000009
  79.329  -28.305  -16.643 0.001215
  79.329  -18.704  -16.643 0.009236
  79.329   -9.102  -16.643 0.047635
  79.329    0.499  -16.643 0.009686
  79.329   10.101  -16.643 0.004548
  79.329   19.702  -16.643 0.003338
  79.329  -23.505   -8.328 0.003003
  79.329  -13.903   -8.328 0.000448
  79.329   -4.302   -8.328 0.000127
  79.329    5.300   -8.328 0.001419
  79.329   14.902   -8.328 0.045426
  79.329   24.503   -8.328 0.005613
  79.329  -28.305   -0.013 0.001427
  79.329  -18.704   -0.013 0.003742
  79.329   -9.102   -0.013 0.000264
  79.329    0.499   -0.013 0.000338
  79.329   10.101   -0.013 0.006424
  79.329   19.702   -0.013 0.037284
  79.329   29.304   -0.013 0.002158
  79.329  -23.505    8.303 0.004980
  79.329  -13.903    8.303 0.002263
  79.329   -4.302    8.303 0.001405
  79.329    5.300    8.303 0.005723
  79.329   14.902    8.303 0.039975
  79.329   24.503    8.303 0.002197
  79.329  -28.305   16.618 0.003395
  79.329  -18.704   16.618 0.018571
  79.329   -9.102   16.618 0.001894
  79.329    0.499   16.618 0.004437
  79.329   10.101   16.618 0.011552
  79.329   19.702   16.618 0.000905
  79.329  -23.505   24.933 0.007985
  79.329  -13.903   24.933 0.012629
  79.329   -4.302   24.933 0.000735
  79.329    5.300   24.933 0.001223
  79.329   14.902   24.933 0.000280
  79.329   24.503   24.933 0.000064
  77.112  -24.016  -25.490 0.001118
  77.112  -14.210  -25.490 0.003657
  77.112   -4.404  -25.490 0.001591
  77.112    5.402  -25.490 0.000045
  77.112   15.208  -25.490 0.000047
  77.112   25.015  -25.490 0.000011
  77.112  -28.919  -16.997 0.000001
  77.112  -19.113  -16.997 0.000137
  77.112   -9.307  -16.997 0.000110
  77.112    0.499  -16.997 0.000261
  77.112   10.305  -16.997 0.000132
  77.112   20.111  -16.997 0.000073
  77.112  -24.016   -8.505 0.000005
  77.112  -14.210   -8.505 0.000053
  77.112   -4.404   -8.505 0.000068
  77.112    5.402   -8.505 0.000313
  77.112   15.208   -8.505 0.001412
  77.112   25.015   -8.505 0.002518
  77.112  -28.919   -0.013 0.000009
  77.112  -19.113   -0.013 0.000086
  77.112   -9.307   -0.013 0.000052
  77.112    0.499   -0.013 0.000010
  77.112   10.305   -0.013 0.000351
  77.112   20.111   -0.013 0.006130
  77.112  -24.016    8.480 0.000033
  77.112  -14.210    8.480 0.000076
  77.112   -4.404    8.480 0.000015
  77.112    5.402    8.480 0.002686
  77.112   15.208    8.480 0.009952
  77.112   25.015    8.480 0.001568
  77.112  -28.919   16.972 0.000037
  77.112  -19.113   16.972 0.000171
  77.112   -9.307   16.972 0.000050
  77.112    0.499   16.972 0.000385
  77.112  -24.016   25.464 0.000739
  77.112  -14.210   25.464 0.000052
  77.112   -4.404   25.464 0.000268
  77.112    5.402   25.464 0.000558
  77.112   15.208   25.464 0.000721
  77.112   25.015   25.464 0.000007
  74.847  -24.638  -26.136 0.005917
  74.847  -14.583  -26.136 0.031053
  74.847   -4.528  -26.136 0.022205
  74.847    5.527  -26.136 0.000192
  74.847   15.582  -26.136 0.000012
  74.847  -29.666  -17.429 0.000568
  74.847  -19.611  -17.429 0.009932
  74.847   -9.556  -17.429 0.036106
  74.847    0.499  -17.429 0.000293
  74.847   10.554  -17.429 0.000110
  74.847   20.609  -17.429 0.000018
  74.847  -24.638   -8.721 0.000274
  74.847  -14.583   -8.721 0.000065
  74.847   -4.528   -8.721 0.000076
  74.847    5.527   -8.721 0.000099
  74.847   15.582   -8.721 0.000030
  74.847   25.637   -8.721 0.000009
  74.847  -29.666   -0.013 0.000002
  74.847  -19.611   -0.013 0.000042
  74.847   -9.556   -0.013 0.000031
  74.847    0.499   -0.013 0.000072
  74.847   10.554   -0.013 0.000158
  74.847   20.609   -0.013 0.000025
  74.847  -24.638    8.695 0.000015
  74.847  -14.583    8.695 0.000034
  74.847   -4.528    8.695 0.002170
  74.847    5.527    8.695 0.020402
  74.847   15.582    8.695 0.003786
  74.847  -19.611   17.403 0.000017
  74.847   -9.556   17.403 0.000084
  74.847  -24.638   26.111 0.000003
  74.847  -14.583   26.111 0.000006
  74.847   -4.528   26.111 0.000337
  74.847    5.527   26.111 0.001522
  74.847   15.582   26.111 0.000892
  74.847   25.637   26.111 0.000005
  70.130  -25.971  -22.936 0.000003
  70.130  -15.383  -22.936 0.000057
  70.130   -4.795  -22.936 0.002352
  70.130    5.793  -22.936 0.008435
  70.130   16.381  -22.936 0.004137
  70.130   26.969  -22.936 0.000399
  70.130  -20.677  -13.767 0.000055
  70.130  -10.089  -13.767 0.000103
  70.130    0.499  -13.767 0.040774
  70.130   11.087  -13.767 0.032632
  70.130   21.675  -13.767 0.004955
  70.130  -25.971   -4.597 0.000005
  70.130  -15.383   -4.597 0.000017
  70.130   -4.795   -4.597 0.000105
  70.130    5.793   -4.597 0.011665
  70.130  -20.677    4.572 0.000007
  70.130  -10.089    4.572 0.000122
  70.130  -25.971   13.742 0.000005
  70.130   11.087   22.911 0.000325
  67.660  -21.298  -23.608 0.000005
  67.660  -10.399  -23.608 0.000894
  67.660    0.499  -23.608 0.002954
  67.660   11.398  -23.608 0.001750
  67.660   22.296  -23.608 0.000010
  67.660  -26.747  -14.170 0.000003
  67.660  -15.848  -14.170 0.000328
  67.660   -4.950  -14.170 0.003903
  67.660    5.949  -14.170 0.004864
  67.660   16.847  -14.170 0.001238
  67.660   27.745  -14.170 0.000368
  67.660  -21.298   -4.732 0.000005
  67.660  -10.399   -4.732 0.000054
  67.660    0.499   -4.732 0.016691
  67.660  -26.747    4.707 0.000004
  67.660  -15.848    4.707 0.000009
