# patient_id 558-76-49
# patient_first_name JERELYN
# patient_middle_initial _
# patient_last_name ROBERTS
# astroid_id 80106
# course_name 1st
# beam_name 310A1
# gantry 310
# couch_rotation -0
# gigaproton_total   16.245
# rows_total 870
# E(MeV)    X(mm)    Y(mm)    N(Gp)
 121.622   -6.734   38.990 0.022947
 121.622    0.139   38.990 0.003746
 121.622  -10.170   44.942 0.004535
 121.622   -3.298   44.942 0.009453
 121.622  -13.606   50.894 0.009463
 121.622   -6.734   50.894 0.032068
 121.622    0.139   50.894 0.001422
 121.622  -10.170   56.845 0.042543
 121.622   -3.298   56.845 0.026978
 121.622    3.575   56.845 0.000597
 121.622   -6.734   62.797 0.002983
 121.622   -3.298   68.749 0.000210
 121.622    3.575   68.749 0.000073
 118.484   -9.981   36.233 0.032497
 118.484   -2.983   36.233 0.021390
 118.484    4.015   36.233 0.001243
 118.484  -13.480   42.293 0.020255
 118.484   -6.482   42.293 0.023284
 118.484    0.516   42.293 0.001493
 118.484  -23.978   48.354 0.031529
 118.484  -16.979   48.354 0.008382
 118.484   -9.981   48.354 0.021907
 118.484   -2.983   48.354 0.018782
 118.484  -20.478   54.415 0.036289
 118.484  -13.480   54.415 0.044373
 118.484   -6.482   54.415 0.063186
 118.484    0.516   54.415 0.004940
 118.484    7.515   54.415 0.000245
 118.484  -23.978   60.475 0.030300
 118.484  -16.979   60.475 0.022818
 118.484   -9.981   60.475 0.030529
 118.484   -2.983   60.475 0.014728
 118.484    4.015   60.475 0.000474
 118.484  -27.477   66.536 0.001066
 118.484  -20.478   66.536 0.000725
 118.484  -13.480   66.536 0.000449
 118.484   -6.482   66.536 0.000556
 118.484    0.516   66.536 0.000303
 116.873  -13.417   30.227 0.009467
 116.873   -6.356   30.227 0.018293
 116.873  -16.948   36.342 0.029260
 116.873   -9.887   36.342 0.034663
 116.873   -2.825   36.342 0.023849
 116.873    4.236   36.342 0.001208
 116.873  -20.478   42.457 0.054653
 116.873  -13.417   42.457 0.030811
 116.873   -6.356   42.457 0.029903
 116.873    0.705   42.457 0.002220
 116.873  -31.070   48.572 0.026858
 116.873  -24.009   48.572 0.070994
 116.873  -16.948   48.572 0.036050
 116.873   -9.887   48.572 0.047956
 116.873   -2.825   48.572 0.025519
 116.873    4.236   48.572 0.000546
 116.873  -27.540   54.687 0.080006
 116.873  -20.478   54.687 0.086411
 116.873  -13.417   54.687 0.118698
 116.873   -6.356   54.687 0.078015
 116.873    0.705   54.687 0.009123
 116.873    7.766   54.687 0.000255
 116.873  -31.070   60.802 0.012836
 116.873  -24.009   60.802 0.036308
 116.873  -16.948   60.802 0.031116
 116.873   -9.887   60.802 0.036993
 116.873   -2.825   60.802 0.017212
 116.873    4.236   60.802 0.000487
 116.873  -27.540   66.918 0.001038
 116.873  -20.478   66.918 0.000752
 116.873  -13.417   66.918 0.000482
 116.873   -6.356   66.918 0.000572
 116.873    0.705   66.918 0.000302
 113.514  -16.879   24.111 0.053860
 113.514   -9.679   24.111 0.035200
 113.514   -2.480   24.111 0.021132
 113.514  -27.678   30.346 0.026982
 113.514  -20.478   30.346 0.035985
 113.514  -13.279   30.346 0.014363
 113.514   -6.079   30.346 0.026861
 113.514    1.120   30.346 0.004163
 113.514  -31.278   36.581 0.014472
 113.514  -24.078   36.581 0.058207
 113.514  -16.879   36.581 0.038595
 113.514   -9.679   36.581 0.032687
 113.514   -2.480   36.581 0.028275
 113.514    4.720   36.581 0.001142
 113.514  -34.878   42.816 0.022794
 113.514  -27.678   42.816 0.049847
 113.514  -20.478   42.816 0.029420
 113.514  -13.279   42.816 0.001555
 113.514   -6.079   42.816 0.015457
 113.514    1.120   42.816 0.003725
 113.514  -38.477   49.051 0.023782
 113.514  -31.278   49.051 0.054444
 113.514  -24.078   49.051 0.150915
 113.514  -16.879   49.051 0.000178
 113.514   -9.679   49.051 0.008867
 113.514   -2.480   49.051 0.016927
 113.514    4.720   49.051 0.000510
 113.514  -34.878   55.287 0.021999
 113.514  -27.678   55.287 0.073666
 113.514  -20.478   55.287 0.001458
 113.514  -13.279   55.287 0.025591
 113.514   -6.079   55.287 0.069823
 113.514    1.120   55.287 0.012142
 113.514  -38.477   61.522 0.000417
 113.514  -31.278   61.522 0.011671
 113.514  -24.078   61.522 0.021169
 113.514  -16.879   61.522 0.004102
 113.514   -9.679   61.522 0.023101
 113.514   -2.480   61.522 0.016729
 113.514    4.720   61.522 0.000518
 113.514  -34.878   67.757 0.000367
 113.514  -27.678   67.757 0.000804
 113.514  -20.478   67.757 0.000301
 113.514  -13.279   67.757 0.000099
 113.514   -6.079   67.757 0.000509
 113.514    1.120   67.757 0.000330
 111.782  -16.837   17.804 0.036961
 111.782   -9.555   17.804 0.020876
 111.782   -2.272   17.804 0.024517
 111.782  -27.761   24.111 0.043479
 111.782  -20.478   24.111 0.057063
 111.782  -13.196   24.111 0.056519
 111.782   -5.913   24.111 0.033247
 111.782    1.369   24.111 0.009776
 111.782  -31.402   30.418 0.033825
 111.782  -24.120   30.418 0.066895
 111.782  -16.837   30.418 0.154014
 111.782   -9.555   30.418 0.048226
 111.782   -2.272   30.418 0.024994
 111.782    5.011   30.418 0.000866
 111.782  -35.044   36.725 0.024991
 111.782  -27.761   36.725 0.110351
 111.782  -20.478   36.725 0.092591
 111.782  -13.196   36.725 0.125306
 111.782   -5.913   36.725 0.038493
 111.782    1.369   36.725 0.010737
 111.782  -38.685   43.032 0.029379
 111.782  -31.402   43.032 0.036597
 111.782  -24.120   43.032 0.022607
 111.782  -16.837   43.032 0.004636
 111.782   -9.555   43.032 0.001976
 111.782   -2.272   43.032 0.018767
 111.782    5.011   43.032 0.000558
 111.782  -42.326   49.339 0.011737
 111.782  -35.044   49.339 0.032114
 111.782  -27.761   49.339 0.015871
 111.782  -20.478   49.339 0.001164
 111.782  -13.196   49.339 0.000387
 111.782   -5.913   49.339 0.021201
 111.782    1.369   49.339 0.014308
 111.782  -38.685   55.646 0.005219
 111.782  -31.402   55.646 0.031940
 111.782  -24.120   55.646 0.006802
 111.782  -16.837   55.646 0.001149
 111.782   -9.555   55.646 0.061676
 111.782   -2.272   55.646 0.051930
 111.782    5.011   55.646 0.000867
 111.782  -42.326   61.953 0.000298
 111.782  -35.044   61.953 0.001029
 111.782  -27.761   61.953 0.017613
 111.782  -20.478   61.953 0.002244
 111.782  -13.196   61.953 0.019458
 111.782   -5.913   61.953 0.043303
 111.782    1.369   61.953 0.008043
 111.782  -31.402   68.260 0.000589
 111.782  -24.120   68.260 0.000674
 111.782  -16.837   68.260 0.000297
 111.782   -9.555   68.260 0.000638
 111.782   -2.272   68.260 0.000577
 111.782    5.011   68.260 0.000163
 108.295  -24.229    4.625 0.049785
 108.295  -16.728    4.625 0.033694
 108.295   -9.228    4.625 0.028351
 108.295  -20.478   11.120 0.019739
 108.295  -12.978   11.120 0.033595
 108.295   -5.477   11.120 0.056782
 108.295  -31.729   17.616 0.039239
 108.295  -24.229   17.616 0.055890
 108.295  -16.728   17.616 0.054158
 108.295   -9.228   17.616 0.033517
 108.295   -1.727   17.616 0.032530
 108.295  -35.479   24.111 0.045509
 108.295  -27.979   24.111 0.102497
 108.295  -20.478   24.111 0.113324
 108.295  -12.978   24.111 0.084995
 108.295   -5.477   24.111 0.039611
 108.295    2.023   24.111 0.014925
 108.295  -39.230   30.607 0.045728
 108.295  -31.729   30.607 0.107185
 108.295  -24.229   30.607 0.019174
 108.295  -16.728   30.607 0.004106
 108.295   -9.228   30.607 0.111207
 108.295   -1.727   30.607 0.030904
 108.295    5.773   30.607 0.001518
 108.295  -42.980   37.103 0.035571
 108.295  -35.479   37.103 0.081434
 108.295  -27.979   37.103 0.039385
 108.295  -20.478   37.103 0.001724
 108.295  -12.978   37.103 0.014455
 108.295   -5.477   37.103 0.091479
 108.295    2.023   37.103 0.020959
 108.295  -46.730   43.598 0.008591
 108.295  -39.230   43.598 0.032823
 108.295  -31.729   43.598 0.058808
 108.295  -24.229   43.598 0.003238
 108.295  -16.728   43.598 0.007034
 108.295   -9.228   43.598 0.047636
 108.295   -1.727   43.598 0.038094
 108.295    5.773   43.598 0.001163
 108.295  -42.980   50.094 0.008970
 108.295  -35.479   50.094 0.027821
 108.295  -27.979   50.094 0.034416
 108.295  -20.478   50.094 0.005651
 108.295  -12.978   50.094 0.011531
 108.295   -5.477   50.094 0.059211
 108.295    2.023   50.094 0.010213
 108.295  -46.730   56.590 0.000603
 108.295  -39.230   56.590 0.001255
 108.295  -31.729   56.590 0.029707
 108.295  -24.229   56.590 0.033218
 108.295  -16.728   56.590 0.022409
 108.295   -9.228   56.590 0.064358
 108.295   -1.727   56.590 0.019911
 108.295    5.773   56.590 0.000307
 108.295  -42.980   63.085 0.000188
 108.295  -35.479   63.085 0.000513
 108.295  -27.979   63.085 0.022491
 108.295  -20.478   63.085 0.021329
 108.295  -12.978   63.085 0.019291
 108.295   -5.477   63.085 0.012194
 108.295    2.023   63.085 0.000314
 108.295  -31.729   69.581 0.000521
 108.295  -24.229   69.581 0.000984
 108.295  -16.728   69.581 0.000572
 108.295   -9.228   69.581 0.000213
 108.295   -1.727   69.581 0.000078
 108.295    5.773   69.581 0.000017
 104.765  -36.128    0.394 0.037553
 104.765  -28.303    0.394 0.054746
 104.765  -20.478    0.394 0.052909
 104.765  -12.654    0.394 0.037110
 104.765  -32.215    7.170 0.047336
 104.765  -24.391    7.170 0.041668
 104.765  -16.566    7.170 0.041976
 104.765   -8.741    7.170 0.036507
 104.765   -0.917    7.170 0.056859
 104.765  -36.128   13.947 0.035711
 104.765  -28.303   13.947 0.056898
 104.765  -20.478   13.947 0.026502
 104.765  -12.654   13.947 0.033971
 104.765   -4.829   13.947 0.034140
 104.765    2.996   13.947 0.043067
 104.765  -40.040   20.723 0.021901
 104.765  -32.215   20.723 0.040796
 104.765  -24.391   20.723 0.093786
 104.765  -16.566   20.723 0.021817
 104.765   -8.741   20.723 0.018778
 104.765   -0.917   20.723 0.024728
 104.765    6.908   20.723 0.004647
 104.765  -43.952   27.500 0.023041
 104.765  -36.128   27.500 0.044773
 104.765  -28.303   27.500 0.005591
 104.765  -20.478   27.500 0.002936
 104.765  -12.654   27.500 0.002865
 104.765   -4.829   27.500 0.014514
 104.765    2.996   27.500 0.003020
 104.765   10.820   27.500 0.000249
 104.765  -47.865   34.276 0.016540
 104.765  -40.040   34.276 0.045322
 104.765  -32.215   34.276 0.016139
 104.765  -24.391   34.276 0.001423
 104.765  -16.566   34.276 0.001295
 104.765   -8.741   34.276 0.041016
 104.765   -0.917   34.276 0.017292
 104.765    6.908   34.276 0.000696
 104.765  -43.952   41.052 0.030086
 104.765  -36.128   41.052 0.048734
 104.765  -28.303   41.052 0.001631
 104.765  -20.478   41.052 0.011187
 104.765  -12.654   41.052 0.014361
 104.765   -4.829   41.052 0.031938
 104.765    2.996   41.052 0.005448
 104.765  -47.865   47.829 0.004893
 104.765  -40.040   47.829 0.028243
 104.765  -32.215   47.829 0.026429
 104.765  -24.391   47.829 0.001602
 104.765  -16.566   47.829 0.007869
 104.765   -8.741   47.829 0.055970
 104.765   -0.917   47.829 0.017017
 104.765    6.908   47.829 0.000441
 104.765  -43.952   54.605 0.003506
 104.765  -36.128   54.605 0.013885
 104.765  -28.303   54.605 0.020712
 104.765  -20.478   54.605 0.007465
 104.765  -12.654   54.605 0.022073
 104.765   -4.829   54.605 0.015396
 104.765    2.996   54.605 0.000497
 104.765  -47.865   61.381 0.000250
 104.765  -40.040   61.381 0.000336
 104.765  -32.215   61.381 0.006439
 104.765  -24.391   61.381 0.019685
 104.765  -16.566   61.381 0.012210
 104.765   -8.741   61.381 0.004185
 104.765   -0.917   61.381 0.000210
 104.765  -36.128   68.158 0.000337
 104.765  -28.303   68.158 0.002162
 104.765  -20.478   68.158 0.001342
 104.765  -12.654   68.158 0.000077
 104.765   -4.829   68.158 0.000027
 102.992  -40.499   -0.162 0.012033
 102.992  -32.491   -0.162 0.060463
 102.992  -24.483   -0.162 0.112150
 102.992  -16.474   -0.162 0.052727
 102.992   -8.466   -0.162 0.042739
 102.992  -36.495    6.773 0.041860
 102.992  -28.487    6.773 0.086022
 102.992  -20.478    6.773 0.055513
 102.992  -12.470    6.773 0.058824
 102.992   -4.462    6.773 0.066009
 102.992  -40.499   13.709 0.017142
 102.992  -32.491   13.709 0.039226
 102.992  -24.483   13.709 0.126581
 102.992  -16.474   13.709 0.043778
 102.992   -8.466   13.709 0.046369
 102.992   -0.458   13.709 0.052037
 102.992  -44.503   20.644 0.003331
 102.992  -36.495   20.644 0.020984
 102.992  -28.487   20.644 0.019440
 102.992  -20.478   20.644 0.004359
 102.992  -12.470   20.644 0.013334
 102.992   -4.462   20.644 0.023266
 102.992    3.546   20.644 0.019142
 102.992   11.554   20.644 0.000757
 102.992  -48.507   27.579 0.002880
 102.992  -40.499   27.579 0.028015
 102.992  -32.491   27.579 0.003572
 102.992  -24.483   27.579 0.001538
 102.992  -16.474   27.579 0.000724
 102.992   -8.466   27.579 0.021113
 102.992   -0.458   27.579 0.019172
 102.992    7.550   27.579 0.000691
 102.992  -44.503   34.514 0.031465
 102.992  -36.495   34.514 0.052501
 102.992  -28.487   34.514 0.000544
 102.992  -20.478   34.514 0.003689
 102.992  -12.470   34.514 0.004169
 102.992   -4.462   34.514 0.035469
 102.992    3.546   34.514 0.008266
 102.992  -48.507   41.449 0.011873
 102.992  -40.499   41.449 0.038391
 102.992  -32.491   41.449 0.000984
 102.992  -24.483   41.449 0.001500
 102.992  -16.474   41.449 0.006989
 102.992   -8.466   41.449 0.052651
 102.992   -0.458   41.449 0.019742
 102.992    7.550   41.449 0.000807
 102.992  -44.503   48.385 0.014844
 102.992  -36.495   48.385 0.015811
 102.992  -28.487   48.385 0.000218
 102.992  -20.478   48.385 0.002257
 102.992  -12.470   48.385 0.018816
 102.992   -4.462   48.385 0.008522
 102.992    3.546   48.385 0.000818
 102.992  -48.507   55.320 0.001280
 102.992  -40.499   55.320 0.002899
 102.992  -32.491   55.320 0.004566
 102.992  -24.483   55.320 0.010046
 102.992  -16.474   55.320 0.016984
 102.992   -8.466   55.320 0.002003
 102.992   -0.458   55.320 0.000057
 102.992  -44.503   62.255 0.000162
 102.992  -36.495   62.255 0.000100
 102.992  -28.487   62.255 0.010338
 102.992  -20.478   62.255 0.019768
 102.992  -12.470   62.255 0.001122
 102.992   -4.462   62.255 0.000001
 102.992    3.546   62.255 0.000001
 102.992  -40.499   69.190 0.000048
 102.992  -32.491   69.190 0.000551
 102.992  -24.483   69.190 0.002443
 102.992  -16.474   69.190 0.000379
  99.371  -37.231  -19.413 0.000613
  99.371  -28.855  -19.413 0.001426
  99.371  -41.419  -12.159 0.001435
  99.371  -33.043  -12.159 0.014320
  99.371  -24.667  -12.159 0.041854
  99.371  -37.231   -4.905 0.030959
  99.371  -28.855   -4.905 0.065317
  99.371  -20.478   -4.905 0.074245
  99.371  -12.102   -4.905 0.036503
  99.371  -41.419    2.349 0.015062
  99.371  -33.043    2.349 0.051017
  99.371  -24.667    2.349 0.170055
  99.371  -16.290    2.349 0.006679
  99.371   -7.914    2.349 0.025032
  99.371    0.462    2.349 0.059310
  99.371  -45.607    9.603 0.002765
  99.371  -37.231    9.603 0.035869
  99.371  -28.855    9.603 0.042489
  99.371  -20.478    9.603 0.000712
  99.371  -12.102    9.603 0.003633
  99.371   -3.726    9.603 0.076620
  99.371    4.651    9.603 0.058583
  99.371  -49.796   16.857 0.000508
  99.371  -41.419   16.857 0.020129
  99.371  -33.043   16.857 0.039366
  99.371  -24.667   16.857 0.008366
  99.371  -16.290   16.857 0.002696
  99.371   -7.914   16.857 0.063407
  99.371    0.462   16.857 0.039556
  99.371    8.839   16.857 0.016109
  99.371  -45.607   24.111 0.012737
  99.371  -37.231   24.111 0.057233
  99.371  -28.855   24.111 0.006273
  99.371  -20.478   24.111 0.004085
  99.371  -12.102   24.111 0.050983
  99.371   -3.726   24.111 0.028414
  99.371    4.651   24.111 0.011946
  99.371   13.027   24.111 0.000376
  99.371  -49.796   31.366 0.009011
  99.371  -41.419   31.366 0.047451
  99.371  -33.043   31.366 0.012544
  99.371  -24.667   31.366 0.003984
  99.371  -16.290   31.366 0.005564
  99.371   -7.914   31.366 0.033861
  99.371    0.462   31.366 0.012670
  99.371    8.839   31.366 0.000324
  99.371  -45.607   38.620 0.031826
  99.371  -37.231   38.620 0.035880
  99.371  -28.855   38.620 0.001214
  99.371  -20.478   38.620 0.004487
  99.371  -12.102   38.620 0.046142
  99.371   -3.726   38.620 0.014178
  99.371    4.651   38.620 0.000461
  99.371  -49.796   45.874 0.007401
  99.371  -41.419   45.874 0.032499
  99.371  -33.043   45.874 0.002549
  99.371  -24.667   45.874 0.000785
  99.371  -16.290   45.874 0.010739
  99.371   -7.914   45.874 0.013602
  99.371    0.462   45.874 0.000242
  99.371  -53.984   53.128 0.000792
  99.371  -45.607   53.128 0.006181
  99.371  -37.231   53.128 0.010851
  99.371  -28.855   53.128 0.004662
  99.371  -20.478   53.128 0.009543
  99.371  -12.102   53.128 0.005701
  99.371   -3.726   53.128 0.000100
  99.371  -49.796   60.382 0.000346
  99.371  -41.419   60.382 0.000861
  99.371  -33.043   60.382 0.007082
  99.371  -24.667   60.382 0.044948
  99.371  -16.290   60.382 0.011125
  99.371   -7.914   60.382 0.000119
  99.371  -37.231   67.636 0.000416
  95.625  -42.515  -14.056 0.001045
  95.625  -33.700  -14.056 0.007305
  95.625  -24.886  -14.056 0.027952
  95.625  -16.071  -14.056 0.020625
  95.625   -7.257  -14.056 0.042826
  95.625  -46.922   -6.423 0.001067
  95.625  -38.107   -6.423 0.021036
  95.625  -29.293   -6.423 0.042194
  95.625  -20.478   -6.423 0.046094
  95.625  -11.664   -6.423 0.035012
  95.625   -2.850   -6.423 0.061485
  95.625  -42.515    1.211 0.009761
  95.625  -33.700    1.211 0.034645
  95.625  -24.886    1.211 0.048471
  95.625  -16.071    1.211 0.006375
  95.625   -7.257    1.211 0.021554
  95.625    1.558    1.211 0.051299
  95.625  -46.922    8.844 0.002134
  95.625  -38.107    8.844 0.023420
  95.625  -29.293    8.844 0.003036
  95.625  -20.478    8.844 0.000852
  95.625  -11.664    8.844 0.004255
  95.625   -2.850    8.844 0.084408
  95.625    5.965    8.844 0.040605
  95.625  -51.329   16.478 0.000466
  95.625  -42.515   16.478 0.010769
  95.625  -33.700   16.478 0.033365
  95.625  -24.886   16.478 0.000219
  95.625  -16.071   16.478 0.001316
  95.625   -7.257   16.478 0.024350
  95.625    1.558   16.478 0.017516
  95.625   10.372   16.478 0.009128
  95.625  -46.922   24.111 0.006543
  95.625  -38.107   24.111 0.040546
  95.625  -29.293   24.111 0.002214
  95.625  -20.478   24.111 0.005523
  95.625  -11.664   24.111 0.014128
  95.625   -2.850   24.111 0.007613
  95.625    5.965   24.111 0.004585
  95.625   14.779   24.111 0.000171
  95.625  -51.329   31.745 0.006024
  95.625  -42.515   31.745 0.032242
  95.625  -33.700   31.745 0.003584
  95.625  -24.886   31.745 0.002354
  95.625  -16.071   31.745 0.017090
  95.625   -7.257   31.745 0.009816
  95.625    1.558   31.745 0.001781
  95.625   10.372   31.745 0.000074
  95.625  -46.922   39.378 0.024867
  95.625  -38.107   39.378 0.004068
  95.625  -29.293   39.378 0.000498
  95.625  -20.478   39.378 0.009720
  95.625  -11.664   39.378 0.008909
  95.625   -2.850   39.378 0.000368
  95.625    5.965   39.378 0.000153
  95.625  -51.329   47.012 0.006793
  95.625  -42.515   47.012 0.018875
  95.625  -33.700   47.012 0.000355
  95.625  -24.886   47.012 0.002258
  95.625  -16.071   47.012 0.005961
  95.625   -7.257   47.012 0.000341
  95.625    1.558   47.012 0.000005
  95.625  -46.922   54.646 0.005901
  95.625  -38.107   54.646 0.002518
  95.625  -29.293   54.646 0.000039
  95.625  -20.478   54.646 0.000210
  95.625  -11.664   54.646 0.000110
  95.625   -2.850   54.646 0.000007
  95.625  -42.515   62.279 0.000813
  95.625  -33.700   62.279 0.000038
  93.706  -38.547  -15.008 0.001486
  93.706  -29.513  -15.008 0.003047
  93.706  -20.478  -15.008 0.014104
  93.706  -11.444  -15.008 0.016002
  93.706   -2.410  -15.008 0.044774
  93.706  -43.064   -7.184 0.003229
  93.706  -34.030   -7.184 0.015875
  93.706  -24.996   -7.184 0.012012
  93.706  -15.961   -7.184 0.007638
  93.706   -6.927   -7.184 0.029418
  93.706  -47.581    0.640 0.001458
  93.706  -38.547    0.640 0.023494
  93.706  -29.513    0.640 0.028259
  93.706  -20.478    0.640 0.000231
  93.706  -11.444    0.640 0.001978
  93.706   -2.410    0.640 0.034766
  93.706    6.624    0.640 0.051694
  93.706  -43.064    8.463 0.009721
  93.706  -34.030    8.463 0.026655
  93.706  -24.996    8.463 0.000025
  93.706  -15.961    8.463 0.001921
  93.706   -6.927    8.463 0.018993
  93.706    2.107    8.463 0.055983
  93.706   11.142    8.463 0.031869
  93.706  -47.581   16.287 0.002588
  93.706  -38.547   16.287 0.021563
  93.706  -29.513   16.287 0.008944
  93.706  -20.478   16.287 0.000377
  93.706  -11.444   16.287 0.003122
  93.706   -2.410   16.287 0.076322
  93.706    6.624   16.287 0.035096
  93.706  -52.099   24.111 0.000277
  93.706  -43.064   24.111 0.010412
  93.706  -34.030   24.111 0.017162
  93.706  -24.996   24.111 0.003486
  93.706  -15.961   24.111 0.003224
  93.706   -6.927   24.111 0.013833
  93.706    2.107   24.111 0.020448
  93.706   11.142   24.111 0.002363
  93.706  -47.581   31.935 0.012240
  93.706  -38.547   31.935 0.011487
  93.706  -29.513   31.935 0.000700
  93.706  -20.478   31.935 0.003405
  93.706  -11.444   31.935 0.020322
  93.706   -2.410   31.935 0.009987
  93.706    6.624   31.935 0.001179
  93.706  -52.099   39.759 0.000211
  93.706  -43.064   39.759 0.001197
  93.706  -34.030   39.759 0.000854
  93.706  -24.996   39.759 0.002255
  93.706  -15.961   39.759 0.009817
  93.706   -6.927   39.759 0.000579
  93.706    2.107   39.759 0.000056
  93.706  -47.581   47.583 0.000499
  93.706  -38.547   47.583 0.003252
  93.706  -29.513   47.583 0.006334
  93.706  -20.478   47.583 0.004455
  93.706  -11.444   47.583 0.000160
  93.706   -2.410   47.583 0.000043
  93.706    6.624   47.583 0.000010
  93.706  -52.099   55.407 0.000010
  93.706  -43.064   55.407 0.001690
  93.706  -34.030   55.407 0.007095
  93.706  -24.996   55.407 0.005589
  93.706  -15.961   55.407 0.000049
  93.706   -6.927   55.407 0.000030
  93.706  -38.547   63.231 0.001343
  89.784  -34.473  -20.327 0.002064
  89.784  -25.143  -20.327 0.009770
  89.784  -15.814  -20.327 0.013127
  89.784   -6.484  -20.327 0.026467
  89.784  -39.138  -12.247 0.005731
  89.784  -29.808  -12.247 0.024842
  89.784  -20.478  -12.247 0.059723
  89.784  -11.149  -12.247 0.076307
  89.784   -1.819  -12.247 0.072242
  89.784  -43.802   -4.167 0.005167
  89.784  -34.473   -4.167 0.011715
  89.784  -25.143   -4.167 0.038875
  89.784  -15.814   -4.167 0.047871
  89.784   -6.484   -4.167 0.089690
  89.784    2.845   -4.167 0.050849
  89.784  -48.467    3.912 0.001911
  89.784  -39.138    3.912 0.008150
  89.784  -29.808    3.912 0.005615
  89.784  -20.478    3.912 0.000454
  89.784  -11.149    3.912 0.000035
  89.784   -1.819    3.912 0.010878
  89.784    7.510    3.912 0.049033
  89.784  -53.132   11.992 0.000683
  89.784  -43.802   11.992 0.007742
  89.784  -34.473   11.992 0.031476
  89.784  -25.143   11.992 0.000053
  89.784  -15.814   11.992 0.000042
  89.784   -6.484   11.992 0.009057
  89.784    2.845   11.992 0.058944
  89.784   12.175   11.992 0.033779
  89.784  -48.467   20.072 0.003611
  89.784  -39.138   20.072 0.037581
  89.784  -29.808   20.072 0.015307
  89.784  -20.478   20.072 0.000134
  89.784  -11.149   20.072 0.005837
  89.784   -1.819   20.072 0.035815
  89.784    7.510   20.072 0.035078
  89.784  -53.132   28.151 0.002051
  89.784  -43.802   28.151 0.026710
  89.784  -34.473   28.151 0.014431
  89.784  -25.143   28.151 0.003949
  89.784  -15.814   28.151 0.003857
  89.784   -6.484   28.151 0.019764
  89.784    2.845   28.151 0.029159
  89.784   12.175   28.151 0.005339
  89.784  -48.467   36.231 0.010300
  89.784  -39.138   36.231 0.003046
  89.784  -29.808   36.231 0.000806
  89.784  -20.478   36.231 0.004204
  89.784  -11.149   36.231 0.016788
  89.784   -1.819   36.231 0.018346
  89.784  -53.132   44.310 0.000068
  89.784  -43.802   44.310 0.000096
  89.784  -34.473   44.310 0.000045
  89.784  -25.143   44.310 0.001716
  89.784  -15.814   44.310 0.010359
  89.784   -6.484   44.310 0.012682
  89.784    2.845   44.310 0.005069
  89.784  -48.467   52.390 0.000056
  89.784  -39.138   52.390 0.000032
  89.784  -29.808   52.390 0.000025
  89.784  -20.478   52.390 0.001426
  89.784  -43.802   60.470 0.000039
  85.727  -34.622  -20.799 0.001014
  85.727  -25.193  -20.799 0.001436
  85.727  -15.764  -20.799 0.000720
  85.727   -6.335  -20.799 0.013793
  85.727    3.093  -20.799 0.023773
  85.727  -39.336  -12.633 0.001655
  85.727  -29.907  -12.633 0.004797
  85.727  -20.478  -12.633 0.024216
  85.727  -11.050  -12.633 0.002794
  85.727   -1.621  -12.633 0.062118
  85.727    7.808  -12.633 0.039828
  85.727  -44.050   -4.468 0.000813
  85.727  -34.622   -4.468 0.002625
  85.727  -25.193   -4.468 0.018866
  85.727  -15.764   -4.468 0.002696
  85.727   -6.335   -4.468 0.063614
  85.727    3.093   -4.468 0.046300
  85.727  -48.765    3.698 0.000517
  85.727  -39.336    3.698 0.003902
  85.727  -29.907    3.698 0.006727
  85.727  -20.478    3.698 0.000466
  85.727  -11.050    3.698 0.000472
  85.727   -1.621    3.698 0.024129
  85.727    7.808    3.698 0.037774
  85.727  -53.479   11.863 0.000274
  85.727  -44.050   11.863 0.001677
  85.727  -34.622   11.863 0.002269
  85.727  -25.193   11.863 0.000389
  85.727  -15.764   11.863 0.000789
  85.727   -6.335   11.863 0.014534
  85.727    3.093   11.863 0.041858
  85.727   12.522   11.863 0.015709
  85.727  -48.765   20.029 0.000416
  85.727  -39.336   20.029 0.001047
  85.727  -29.907   20.029 0.000271
  85.727  -20.478   20.029 0.000071
  85.727  -11.050   20.029 0.005430
  85.727   -1.621   20.029 0.017940
  85.727    7.808   20.029 0.012693
  85.727  -53.479   28.194 0.002337
  85.727  -44.050   28.194 0.006315
  85.727  -34.622   28.194 0.000280
  85.727  -25.193   28.194 0.000153
  85.727  -15.764   28.194 0.000094
  85.727   -6.335   28.194 0.004337
  85.727    3.093   28.194 0.009320
  85.727  -48.765   36.360 0.020410
  85.727  -39.336   36.360 0.008808
  85.727  -29.907   36.360 0.001812
  85.727  -20.478   36.360 0.009905
  85.727  -11.050   36.360 0.011825
  85.727  -53.479   44.525 0.003178
  85.727  -44.050   44.525 0.009515
  85.727  -34.622   44.525 0.005861
  85.727  -25.193   44.525 0.047949
  85.727  -15.764   44.525 0.041768
  85.727  -48.765   52.691 0.000184
  85.727  -39.336   52.691 0.000022
  85.727  -29.907   52.691 0.025459
  83.640  -34.674  -20.965 0.000376
  83.640  -25.210  -20.965 0.000139
  83.640  -15.747  -20.965 0.000222
  83.640   -6.283  -20.965 0.005551
  83.640    3.180  -20.965 0.027224
  83.640  -39.406  -12.769 0.000894
  83.640  -29.942  -12.769 0.003017
  83.640  -20.478  -12.769 0.026953
  83.640  -11.015  -12.769 0.005283
  83.640   -1.551  -12.769 0.066906
  83.640    7.912  -12.769 0.043645
  83.640  -44.137   -4.573 0.000330
  83.640  -34.674   -4.573 0.000371
  83.640  -25.210   -4.573 0.027581
  83.640  -15.747   -4.573 0.007629
  83.640   -6.283   -4.573 0.062591
  83.640    3.180   -4.573 0.046993
  83.640  -48.869    3.622 0.000824
  83.640  -39.406    3.622 0.000090
  83.640  -29.942    3.622 0.000571
  83.640  -20.478    3.622 0.000055
  83.640  -11.015    3.622 0.003467
  83.640   -1.551    3.622 0.010140
  83.640    7.912    3.622 0.026082
  83.640  -53.601   11.818 0.000524
  83.640  -44.137   11.818 0.002161
  83.640  -34.674   11.818 0.000032
  83.640  -25.210   11.818 0.000040
  83.640  -15.747   11.818 0.002497
  83.640   -6.283   11.818 0.011650
  83.640    3.180   11.818 0.019954
  83.640   12.644   11.818 0.002095
  83.640  -48.869   20.014 0.000324
  83.640  -39.406   20.014 0.000556
  83.640  -29.942   20.014 0.000035
  83.640  -20.478   20.014 0.000528
  83.640  -11.015   20.014 0.023942
  83.640   -1.551   20.014 0.020488
  83.640    7.912   20.014 0.001691
  83.640  -53.601   28.209 0.000018
  83.640  -44.137   28.209 0.000034
  83.640  -34.674   28.209 0.000111
  83.640  -25.210   28.209 0.000666
  83.640  -15.747   28.209 0.009105
  83.640   -6.283   28.209 0.014098
  83.640    3.180   28.209 0.003458
  83.640  -48.869   36.405 0.000006
  83.640  -39.406   36.405 0.000029
  83.640  -29.942   36.405 0.002120
  83.640  -20.478   36.405 0.018024
  83.640  -11.015   36.405 0.011167
  83.640  -53.601   44.601 0.000001
  83.640  -44.137   44.601 0.000002
  83.640  -34.674   44.601 0.000016
  83.640  -25.210   44.601 0.013439
  83.640  -15.747   44.601 0.008521
  83.640  -39.406   52.796 0.000003
  79.329  -39.682  -13.307 0.003920
  79.329  -30.080  -13.307 0.009027
  79.329  -20.478  -13.307 0.006684
  79.329  -10.877  -13.307 0.001354
  79.329   -1.275  -13.307 0.058219
  79.329    8.326  -13.307 0.061561
  79.329  -44.482   -4.992 0.001214
  79.329  -34.881   -4.992 0.000071
  79.329  -25.279   -4.992 0.031882
  79.329  -15.678   -4.992 0.005786
  79.329   -6.076   -4.992 0.110700
  79.329    3.525   -4.992 0.074064
  79.329   13.127   -4.992 0.035460
  79.329  -49.283    3.323 0.000558
  79.329  -39.682    3.323 0.000039
  79.329  -30.080    3.323 0.000030
  79.329  -20.478    3.323 0.001578
  79.329  -10.877    3.323 0.011751
  79.329   -1.275    3.323 0.010888
  79.329    8.326    3.323 0.029563
  79.329  -54.084   11.639 0.000332
  79.329  -44.482   11.639 0.000036
  79.329  -34.881   11.639 0.000085
  79.329  -25.279   11.639 0.000088
  79.329  -15.678   11.639 0.000176
  79.329   -6.076   11.639 0.009894
  79.329    3.525   11.639 0.005288
  79.329  -49.283   19.954 0.000056
  79.329  -39.682   19.954 0.000014
  79.329  -30.080   19.954 0.000045
  79.329  -20.478   19.954 0.027225
  79.329  -10.877   19.954 0.026796
  79.329   -1.275   19.954 0.005684
  79.329  -54.084   28.269 0.000154
  79.329  -44.482   28.269 0.000020
  79.329  -34.881   28.269 0.000144
  79.329  -25.279   28.269 0.017312
  79.329  -15.678   28.269 0.048822
  79.329  -49.283   36.584 0.000067
  79.329  -39.682   36.584 0.000042
  79.329  -30.080   36.584 0.005447
  79.329  -44.482   44.899 0.000017
  79.329  -34.881   44.899 0.000040
  74.847  -30.534  -15.074 0.000020
  74.847  -20.478  -15.074 0.000054
  74.847  -10.423  -15.074 0.002982
  74.847   -0.368  -15.074 0.088674
  74.847    9.687  -15.074 0.089097
  74.847  -45.616   -6.367 0.001702
  74.847  -35.561   -6.367 0.000262
  74.847  -25.506   -6.367 0.001140
  74.847  -15.451   -6.367 0.003358
  74.847   -5.396   -6.367 0.081606
  74.847    4.659   -6.367 0.043467
  74.847   14.714   -6.367 0.037724
  74.847  -40.589    2.341 0.009733
  74.847  -30.534    2.341 0.015646
  74.847  -20.478    2.341 0.021417
  74.847  -10.423    2.341 0.004935
  74.847   -0.368    2.341 0.003690
  74.847    9.687    2.341 0.004136
  74.847  -45.616   11.049 0.002326
  74.847  -35.561   11.049 0.018954
  74.847  -25.506   11.049 0.058962
  74.847  -15.451   11.049 0.037469
  74.847   -5.396   11.049 0.002114
  74.847    4.659   11.049 0.000673
  74.847  -50.644   19.757 0.000015
  74.847  -40.589   19.757 0.001205
  74.847  -30.534   19.757 0.025895
  74.847  -20.478   19.757 0.058786
  74.847  -45.616   28.465 0.000023
  74.847  -35.561   28.465 0.000317
  72.536  -10.173  -20.514 0.006320
  72.536    0.133  -20.514 0.000975
  72.536   10.439  -20.514 0.002038
  72.536  -35.937  -11.589 0.000028
  72.536  -25.631  -11.589 0.005317
  72.536  -15.326  -11.589 0.032454
  72.536   -5.020  -11.589 0.014008
  72.536    5.286  -11.589 0.003512
  72.536  -41.090   -2.664 0.000005
  72.536  -30.784   -2.664 0.000135
  72.536  -20.478   -2.664 0.027719
  72.536  -10.173   -2.664 0.061870
  72.536    0.133   -2.664 0.007326
  72.536   10.439   -2.664 0.001834
  72.536  -46.243    6.261 0.000011
  72.536  -35.937    6.261 0.000019
  72.536  -25.631    6.261 0.002559
  72.536  -15.326    6.261 0.027211
  72.536   -5.020    6.261 0.010010
  72.536    5.286    6.261 0.000604
  72.536  -41.090   15.186 0.000025
  72.536  -30.784   15.186 0.000432
  72.536  -20.478   15.186 0.007741
  72.536  -10.173   15.186 0.006290
  72.536  -35.937   24.111 0.000030
