# patient_id 558-76-49
# patient_first_name JERELYN
# patient_middle_initial _
# patient_last_name ROBERTS
# astroid_id 80106
# course_name 1st
# beam_name 225A1
# gantry 225
# couch_rotation -0
# gigaproton_total   18.395
# rows_total 879
# E(MeV)    X(mm)    Y(mm)    N(Gp)
 136.811    4.584  -19.694 0.000482
 136.811   10.908  -19.694 0.003128
 136.811   17.232  -19.694 0.006539
 136.811   23.556  -19.694 0.002593
 136.811   36.204  -19.694 0.010062
 136.811   42.528  -19.694 0.005764
 136.811   -4.902  -14.217 0.000065
 136.811    1.422  -14.217 0.000616
 136.811    7.746  -14.217 0.006055
 136.811   14.070  -14.217 0.044907
 136.811   20.394  -14.217 0.064944
 136.811   26.718  -14.217 0.059862
 136.811   33.042  -14.217 0.071308
 136.811   39.366  -14.217 0.067180
 136.811    4.584   -8.741 0.003541
 136.811   10.908   -8.741 0.048666
 136.811   17.232   -8.741 0.086863
 136.811   23.556   -8.741 0.106852
 136.811   29.880   -8.741 0.156808
 136.811    7.746   -3.264 0.020482
 136.811   14.070   -3.264 0.030880
 136.811    1.422   62.457 0.000214
 136.811    7.746   62.457 0.000365
 136.811   -1.740   67.933 0.000015
 136.811    4.584   67.933 0.000033
 133.900   -2.172  -14.800 0.000200
 133.900    4.248  -14.800 0.001366
 133.900   10.668  -14.800 0.020040
 133.900   17.088  -14.800 0.045494
 133.900   23.508  -14.800 0.032706
 133.900   29.928  -14.800 0.042699
 133.900   36.348  -14.800 0.064554
 133.900   42.768  -14.800 0.041907
 133.900   -5.382   -9.240 0.000168
 133.900    1.038   -9.240 0.001061
 133.900    7.458   -9.240 0.025169
 133.900   13.878   -9.240 0.076764
 133.900   20.298   -9.240 0.131978
 133.900   26.718   -9.240 0.162775
 133.900   33.138   -9.240 0.198442
 133.900   39.558   -9.240 0.109827
 133.900    4.248   -3.680 0.005790
 133.900   10.668   -3.680 0.038092
 133.900   17.088   -3.680 0.086224
 133.900    7.458    1.880 0.007635
 133.900   13.878    1.880 0.005185
 133.900   10.668   18.560 0.005054
 133.900    1.038   46.360 0.000572
 133.900    7.458   46.360 0.003025
 133.900   -2.172   51.920 0.000440
 133.900    4.248   51.920 0.002861
 133.900   -5.382   57.480 0.000153
 133.900    1.038   57.480 0.000594
 133.900    7.458   57.480 0.002189
 133.900   -2.172   63.039 0.000113
 133.900    4.248   63.039 0.000288
 133.900   10.668   63.039 0.000441
 133.900    1.038   68.599 0.000018
 133.900    7.458   68.599 0.000040
 130.991    0.638  -18.229 0.000295
 130.991    7.158  -18.229 0.003109
 130.991   -2.622  -12.583 0.000323
 130.991    3.898  -12.583 0.003164
 130.991   10.418  -12.583 0.043886
 130.991   16.938  -12.583 0.028668
 130.991   23.458  -12.583 0.005198
 130.991   29.978  -12.583 0.003252
 130.991   36.498  -12.583 0.029337
 130.991   43.018  -12.583 0.039247
 130.991    0.638   -6.936 0.001161
 130.991    7.158   -6.936 0.031994
 130.991   13.678   -6.936 0.064793
 130.991   20.198   -6.936 0.033578
 130.991   26.718   -6.936 0.003485
 130.991   33.238   -6.936 0.052929
 130.991   -2.622   -1.290 0.000475
 130.991    3.898   -1.290 0.006300
 130.991   10.418   -1.290 0.026107
 130.991   16.938   -1.290 0.009366
 130.991   23.458   -1.290 0.004262
 130.991    7.158    4.357 0.004201
 130.991   13.678    4.357 0.004167
 130.991   20.198    4.357 0.013922
 130.991   10.418   10.003 0.002668
 130.991   16.938   10.003 0.006052
 130.991    7.158   15.650 0.000646
 130.991   13.678   15.650 0.000840
 130.991   20.198   15.650 0.000029
 130.991    3.898   21.296 0.000713
 130.991   10.418   21.296 0.008209
 130.991   16.938   21.296 0.002555
 130.991   23.458   21.296 0.009936
 130.991    7.158   26.943 0.004519
 130.991   13.678   26.943 0.003752
 130.991   20.198   26.943 0.003670
 130.991    3.898   32.589 0.001519
 130.991   10.418   32.589 0.002361
 130.991   16.938   32.589 0.002044
 130.991    0.638   38.236 0.000850
 130.991    7.158   38.236 0.005839
 130.991   13.678   38.236 0.009692
 130.991   -2.622   43.882 0.000338
 130.991    3.898   43.882 0.001487
 130.991   10.418   43.882 0.008251
 130.991   -5.882   49.529 0.000187
 130.991    0.638   49.529 0.000771
 130.991    7.158   49.529 0.016454
 130.991   13.678   49.529 0.009213
 130.991   -2.622   55.175 0.000418
 130.991    3.898   55.175 0.003338
 130.991   10.418   55.175 0.024197
 130.991   -5.882   60.822 0.000094
 130.991    0.638   60.822 0.000368
 130.991    7.158   60.822 0.000706
 130.991   13.678   60.822 0.008786
 130.991   -2.622   66.468 0.000041
 130.991    3.898   66.468 0.000108
 130.991   10.418   66.468 0.000206
 130.991   16.938   66.468 0.000499
 127.861    0.183  -18.968 0.000193
 127.861   -3.134  -13.223 0.000277
 127.861    3.500  -13.223 0.003283
 127.861   10.133  -13.223 0.041127
 127.861   16.767  -13.223 0.023176
 127.861   23.401  -13.223 0.000881
 127.861   30.035  -13.223 0.003817
 127.861   36.669  -13.223 0.038420
 127.861    0.183   -7.478 0.001046
 127.861    6.817   -7.478 0.038528
 127.861   13.450   -7.478 0.065236
 127.861   20.084   -7.478 0.000888
 127.861   26.718   -7.478 0.001835
 127.861   33.352   -7.478 0.023903
 127.861   -3.134   -1.733 0.000516
 127.861    3.500   -1.733 0.013308
 127.861   10.133   -1.733 0.034355
 127.861   16.767   -1.733 0.043514
 127.861   23.401   -1.733 0.002860
 127.861   30.035   -1.733 0.006571
 127.861    0.183    4.012 0.000711
 127.861    6.817    4.012 0.014625
 127.861   13.450    4.012 0.015439
 127.861   20.084    4.012 0.015790
 127.861    3.500    9.757 0.000706
 127.861   10.133    9.757 0.013217
 127.861   16.767    9.757 0.019991
 127.861   23.401    9.757 0.024300
 127.861    0.183   15.502 0.000162
 127.861    6.817   15.502 0.004429
 127.861   13.450   15.502 0.010712
 127.861   20.084   15.502 0.001498
 127.861   26.718   15.502 0.008813
 127.861   -3.134   21.247 0.000098
 127.861    3.500   21.247 0.001252
 127.861   10.133   21.247 0.017833
 127.861   16.767   21.247 0.007928
 127.861   23.401   21.247 0.016487
 127.861   30.035   21.247 0.023752
 127.861    0.183   26.992 0.000599
 127.861    6.817   26.992 0.013595
 127.861   13.450   26.992 0.006437
 127.861   20.084   26.992 0.008543
 127.861   26.718   26.992 0.021253
 127.861   -3.134   32.737 0.000446
 127.861    3.500   32.737 0.002591
 127.861   10.133   32.737 0.010204
 127.861   16.767   32.737 0.005727
 127.861   23.401   32.737 0.022225
 127.861   -6.451   38.482 0.000196
 127.861    0.183   38.482 0.000886
 127.861    6.817   38.482 0.015670
 127.861   13.450   38.482 0.022088
 127.861   20.084   38.482 0.030021
 127.861   -3.134   44.227 0.000375
 127.861    3.500   44.227 0.008700
 127.861   10.133   44.227 0.021548
 127.861   16.767   44.227 0.010958
 127.861   -6.451   49.973 0.000206
 127.861    0.183   49.973 0.001704
 127.861    6.817   49.973 0.030249
 127.861   13.450   49.973 0.026149
 127.861   20.084   49.973 0.011030
 127.861   -3.134   55.718 0.000444
 127.861    3.500   55.718 0.010078
 127.861   10.133   55.718 0.034483
 127.861   16.767   55.718 0.039499
 127.861   -6.451   61.463 0.000091
 127.861    0.183   61.463 0.000376
 127.861    6.817   61.463 0.000919
 127.861   13.450   61.463 0.015047
 127.861    3.500   67.208 0.000104
 127.861   10.133   67.208 0.000211
 127.861   16.767   67.208 0.000511
 124.699    3.084  -13.891 0.000648
 124.699    9.837  -13.891 0.004962
 124.699   36.847  -13.891 0.065019
 124.699   -0.292   -8.043 0.000822
 124.699    6.461   -8.043 0.019943
 124.699   13.213   -8.043 0.021364
 124.699   19.966   -8.043 0.013767
 124.699   26.718   -8.043 0.008564
 124.699   33.471   -8.043 0.107283
 124.699   40.223   -8.043 0.088696
 124.699   -3.668   -2.195 0.000555
 124.699    3.084   -2.195 0.017441
 124.699    9.837   -2.195 0.034734
 124.699   16.589   -2.195 0.054651
 124.699   23.342   -2.195 0.005669
 124.699   30.094   -2.195 0.014463
 124.699   -0.292    3.652 0.001165
 124.699    6.461    3.652 0.032345
 124.699   13.213    3.652 0.069073
 124.699   19.966    3.652 0.050392
 124.699   26.718    3.652 0.062797
 124.699   -3.668    9.500 0.000157
 124.699    3.084    9.500 0.002650
 124.699    9.837    9.500 0.036264
 124.699   16.589    9.500 0.069741
 124.699   23.342    9.500 0.062046
 124.699   30.094    9.500 0.066593
 124.699   -7.044   15.348 0.000010
 124.699   -0.292   15.348 0.000196
 124.699    6.461   15.348 0.018160
 124.699   13.213   15.348 0.027586
 124.699   19.966   15.348 0.022726
 124.699   26.718   15.348 0.032292
 124.699   -3.668   21.196 0.000114
 124.699    3.084   21.196 0.009119
 124.699    9.837   21.196 0.033425
 124.699   16.589   21.196 0.024554
 124.699   23.342   21.196 0.033311
 124.699   30.094   21.196 0.041617
 124.699   -7.044   27.044 0.000087
 124.699   -0.292   27.044 0.000699
 124.699    6.461   27.044 0.027207
 124.699   13.213   27.044 0.026322
 124.699   19.966   27.044 0.030792
 124.699   26.718   27.044 0.037889
 124.699   33.471   27.044 0.007489
 124.699   -3.668   32.891 0.000555
 124.699    3.084   32.891 0.013073
 124.699    9.837   32.891 0.030827
 124.699   16.589   32.891 0.071201
 124.699   23.342   32.891 0.082095
 124.699   30.094   32.891 0.027484
 124.699   -7.044   38.739 0.000228
 124.699   -0.292   38.739 0.001375
 124.699    6.461   38.739 0.030627
 124.699   13.213   38.739 0.051159
 124.699   19.966   38.739 0.063694
 124.699   26.718   38.739 0.059960
 124.699   -3.668   44.587 0.000458
 124.699    3.084   44.587 0.020588
 124.699    9.837   44.587 0.046991
 124.699   16.589   44.587 0.032522
 124.699   23.342   44.587 0.031418
 124.699   -7.044   50.435 0.000226
 124.699   -0.292   50.435 0.008041
 124.699    6.461   50.435 0.050919
 124.699   13.213   50.435 0.107636
 124.699   19.966   50.435 0.082886
 124.699   -3.668   56.283 0.000432
 124.699    3.084   56.283 0.017314
 124.699    9.837   56.283 0.053979
 124.699   16.589   56.283 0.090142
 124.699   -0.292   62.130 0.000336
 124.699    6.461   62.130 0.003814
 124.699   13.213   62.130 0.026164
 124.699   19.966   62.130 0.038980
 124.699    3.084   67.978 0.000077
 124.699    9.837   67.978 0.000215
 124.699   16.589   67.978 0.000564
 124.699   23.342   67.978 0.000814
 121.622   -0.771   -8.614 0.000690
 121.622    6.101   -8.614 0.014358
 121.622   12.973   -8.614 0.005380
 121.622   19.846   -8.614 0.016626
 121.622   26.718   -8.614 0.036223
 121.622   33.590   -8.614 0.039809
 121.622   40.463   -8.614 0.051018
 121.622   -4.207   -2.663 0.000514
 121.622    2.665   -2.663 0.016141
 121.622    9.537   -2.663 0.025209
 121.622   16.410   -2.663 0.003572
 121.622   23.282   -2.663 0.012291
 121.622   30.154   -2.663 0.025286
 121.622   37.027   -2.663 0.067199
 121.622   -0.771    3.289 0.001062
 121.622    6.101    3.289 0.026593
 121.622   12.973    3.289 0.027990
 121.622   19.846    3.289 0.065262
 121.622   26.718    3.289 0.046534
 121.622   -4.207    9.241 0.000070
 121.622    2.665    9.241 0.004833
 121.622    9.537    9.241 0.025085
 121.622   16.410    9.241 0.028434
 121.622   23.282    9.241 0.072423
 121.622   30.154    9.241 0.116551
 121.622   -7.644   15.192 0.000009
 121.622   -0.771   15.192 0.000129
 121.622    6.101   15.192 0.025346
 121.622   12.973   15.192 0.023978
 121.622   19.846   15.192 0.008269
 121.622   26.718   15.192 0.078546
 121.622   33.590   15.192 0.109200
 121.622   -4.207   21.144 0.000174
 121.622    2.665   21.144 0.019808
 121.622    9.537   21.144 0.041584
 121.622   16.410   21.144 0.017074
 121.622   23.282   21.144 0.033793
 121.622   30.154   21.144 0.049371
 121.622   37.027   21.144 0.050569
 121.622   -7.644   27.095 0.000174
 121.622   -0.771   27.095 0.004868
 121.622    6.101   27.095 0.028292
 121.622   12.973   27.095 0.009691
 121.622   19.846   27.095 0.004963
 121.622   26.718   27.095 0.030327
 121.622   33.590   27.095 0.019247
 121.622   -4.207   33.047 0.000747
 121.622    2.665   33.047 0.019347
 121.622    9.537   33.047 0.020116
 121.622   16.410   33.047 0.000143
 121.622   23.282   33.047 0.048370
 121.622   30.154   33.047 0.033595
 121.622   -0.771   38.999 0.004937
 121.622    6.101   38.999 0.036816
 121.622   12.973   38.999 0.005709
 121.622   19.846   38.999 0.010353
 121.622   26.718   38.999 0.062524
 121.622   -4.207   44.950 0.000510
 121.622    2.665   44.950 0.025696
 121.622    9.537   44.950 0.022237
 121.622   16.410   44.950 0.008100
 121.622   23.282   44.950 0.016493
 121.622   30.154   44.950 0.046996
 121.622   -7.644   50.902 0.000164
 121.622   -0.771   50.902 0.016687
 121.622    6.101   50.902 0.061827
 121.622   12.973   50.902 0.043325
 121.622   19.846   50.902 0.080143
 121.622   26.718   50.902 0.136361
 121.622   -4.207   56.854 0.000425
 121.622    2.665   56.854 0.020022
 121.622    9.537   56.854 0.030489
 121.622   16.410   56.854 0.045949
 121.622   -0.771   62.805 0.000218
 121.622    6.101   62.805 0.000448
 121.622   12.973   62.805 0.013161
 121.622   19.846   62.805 0.033165
 121.622   40.463   62.805 0.000505
 121.622    2.665   68.757 0.000028
 121.622    9.537   68.757 0.000046
 121.622   16.410   68.757 0.000411
 121.622   23.282   68.757 0.000756
 121.622   37.027   68.757 0.000295
 118.484    2.224   -6.184 0.011479
 118.484    9.222   -6.184 0.024681
 118.484   16.221   -6.184 0.007028
 118.484   23.219   -6.184 0.015330
 118.484   30.217   -6.184 0.024614
 118.484   37.216   -6.184 0.027450
 118.484   -1.275   -0.123 0.002777
 118.484    5.723   -0.123 0.046761
 118.484   12.722   -0.123 0.026654
 118.484   19.720   -0.123 0.006761
 118.484   26.718   -0.123 0.026073
 118.484   33.716   -0.123 0.042838
 118.484   -4.774    5.938 0.000433
 118.484    2.224    5.938 0.010587
 118.484    9.222    5.938 0.037475
 118.484   16.221    5.938 0.001750
 118.484   23.219    5.938 0.001864
 118.484   30.217    5.938 0.012991
 118.484   -1.275   11.998 0.000186
 118.484    5.723   11.998 0.015342
 118.484   12.722   11.998 0.026926
 118.484   19.720   11.998 0.001936
 118.484   26.718   11.998 0.006801
 118.484   33.716   11.998 0.096340
 118.484   -4.774   18.059 0.000026
 118.484    2.224   18.059 0.009785
 118.484    9.222   18.059 0.063895
 118.484   16.221   18.059 0.041264
 118.484   23.219   18.059 0.007627
 118.484   30.217   18.059 0.020737
 118.484   37.216   18.059 0.090402
 118.484   -1.275   24.120 0.000130
 118.484    5.723   24.120 0.026700
 118.484   12.722   24.120 0.045578
 118.484   19.720   24.120 0.027488
 118.484   26.718   24.120 0.031121
 118.484   33.716   24.120 0.027037
 118.484   40.715   24.120 0.049310
 118.484   -4.774   30.180 0.000112
 118.484    2.224   30.180 0.010933
 118.484    9.222   30.180 0.035277
 118.484   16.221   30.180 0.012459
 118.484   23.219   30.180 0.011051
 118.484   30.217   30.180 0.011630
 118.484   37.216   30.180 0.014460
 118.484   -1.275   36.241 0.000529
 118.484    5.723   36.241 0.042587
 118.484   12.722   36.241 0.014989
 118.484   19.720   36.241 0.010077
 118.484   26.718   36.241 0.016940
 118.484   33.716   36.241 0.095703
 118.484   -4.774   42.302 0.000177
 118.484    2.224   42.302 0.005723
 118.484    9.222   42.302 0.028288
 118.484   16.221   42.302 0.017897
 118.484   23.219   42.302 0.013236
 118.484   30.217   42.302 0.049999
 118.484   37.216   42.302 0.053735
 118.484   -1.275   48.362 0.001501
 118.484    5.723   48.362 0.024307
 118.484   12.722   48.362 0.008104
 118.484   19.720   48.362 0.001875
 118.484   26.718   48.362 0.006386
 118.484   33.716   48.362 0.028468
 118.484   40.715   48.362 0.019518
 118.484   -4.774   54.423 0.000485
 118.484    2.224   54.423 0.010124
 118.484    9.222   54.423 0.023259
 118.484   16.221   54.423 0.000446
 118.484   23.219   54.423 0.019315
 118.484   30.217   54.423 0.045211
 118.484   37.216   54.423 0.010003
 118.484   -1.275   60.484 0.000553
 118.484    5.723   60.484 0.003564
 118.484   12.722   60.484 0.008396
 118.484   19.720   60.484 0.018862
 118.484   26.718   60.484 0.035477
 118.484   40.715   60.484 0.000783
 118.484    2.224   66.544 0.000168
 118.484    9.222   66.544 0.000118
 118.484   16.221   66.544 0.000207
 118.484   23.219   66.544 0.000875
 118.484   37.216   66.544 0.000515
 118.484   44.214   66.544 0.000118
 115.209   16.028   -6.740 0.004627
 115.209   23.155   -6.740 0.025958
 115.209   30.281   -6.740 0.024200
 115.209   37.408   -6.740 0.009769
 115.209   -1.789   -0.568 0.001376
 115.209    5.338   -0.568 0.006867
 115.209   12.465   -0.568 0.007360
 115.209   19.591   -0.568 0.004318
 115.209   26.718   -0.568 0.030388
 115.209   33.845   -0.568 0.021960
 115.209   -5.352    5.604 0.000287
 115.209    1.774    5.604 0.006089
 115.209    8.901    5.604 0.009700
 115.209   16.028    5.604 0.004724
 115.209   23.155    5.604 0.030807
 115.209   30.281    5.604 0.023829
 115.209   -1.789   11.776 0.000543
 115.209    5.338   11.776 0.017711
 115.209   12.465   11.776 0.028526
 115.209   19.591   11.776 0.032946
 115.209   26.718   11.776 0.023205
 115.209   33.845   11.776 0.059604
 115.209   -5.352   17.948 0.000124
 115.209    1.774   17.948 0.009692
 115.209    8.901   17.948 0.042645
 115.209   16.028   17.948 0.033211
 115.209   23.155   17.948 0.030039
 115.209   30.281   17.948 0.006727
 115.209   37.408   17.948 0.083662
 115.209   -1.789   24.120 0.000481
 115.209    5.338   24.120 0.015920
 115.209   12.465   24.120 0.011276
 115.209   19.591   24.120 0.007665
 115.209   26.718   24.120 0.017945
 115.209   33.845   24.120 0.006864
 115.209   40.972   24.120 0.053550
 115.209   -5.352   30.292 0.000251
 115.209    1.774   30.292 0.013607
 115.209    8.901   30.292 0.019886
 115.209   16.028   30.292 0.007688
 115.209   23.155   30.292 0.020732
 115.209   30.281   30.292 0.009720
 115.209   37.408   30.292 0.010515
 115.209   44.535   30.292 0.048617
 115.209   -1.789   36.464 0.000595
 115.209    5.338   36.464 0.018098
 115.209   12.465   36.464 0.053186
 115.209   19.591   36.464 0.039084
 115.209   26.718   36.464 0.025246
 115.209   33.845   36.464 0.052701
 115.209   40.972   36.464 0.041070
 115.209   -5.352   42.635 0.000107
 115.209    1.774   42.635 0.000461
 115.209    8.901   42.635 0.016972
 115.209   16.028   42.635 0.026584
 115.209   23.155   42.635 0.009150
 115.209   30.281   42.635 0.010866
 115.209   37.408   42.635 0.041382
 115.209   44.535   42.635 0.034279
 115.209   -1.789   48.807 0.000005
 115.209    5.338   48.807 0.002345
 115.209   12.465   48.807 0.017035
 115.209   19.591   48.807 0.009001
 115.209   26.718   48.807 0.003553
 115.209   33.845   48.807 0.019120
 115.209   40.972   48.807 0.018356
 115.209   48.098   48.807 0.003431
 115.209    1.774   54.979 0.000088
 115.209    8.901   54.979 0.014133
 115.209   16.028   54.979 0.031626
 115.209   23.155   54.979 0.074080
 115.209   30.281   54.979 0.065336
 115.209   37.408   54.979 0.011198
 115.209   44.535   54.979 0.001144
 115.209    5.338   61.151 0.001017
 115.209   12.465   61.151 0.011818
 115.209   19.591   61.151 0.027446
 115.209   26.718   61.151 0.037624
 115.209   33.845   61.151 0.014695
 115.209   40.972   61.151 0.000739
 115.209   23.155   67.323 0.001268
 115.209   30.281   67.323 0.001283
 115.209   37.408   67.323 0.000467
 111.782   37.642   -7.415 0.009504
 111.782   -2.412   -1.108 0.000007
 111.782    4.870   -1.108 0.001158
 111.782   12.153   -1.108 0.008354
 111.782   19.435   -1.108 0.018698
 111.782   26.718   -1.108 0.040700
 111.782   34.001   -1.108 0.039579
 111.782   41.283   -1.108 0.018094
 111.782   -6.054    5.199 0.000005
 111.782    1.229    5.199 0.000478
 111.782    8.512    5.199 0.004585
 111.782   15.794    5.199 0.005784
 111.782   23.077    5.199 0.009767
 111.782   30.359    5.199 0.003395
 111.782   37.642    5.199 0.080572
 111.782   -2.412   11.506 0.000066
 111.782    4.870   11.506 0.006461
 111.782   12.153   11.506 0.021816
 111.782   19.435   11.506 0.018609
 111.782   26.718   11.506 0.012539
 111.782   34.001   11.506 0.015107
 111.782   -6.054   17.813 0.000107
 111.782    1.229   17.813 0.001100
 111.782    8.512   17.813 0.029300
 111.782   15.794   17.813 0.035743
 111.782   23.077   17.813 0.032998
 111.782   30.359   17.813 0.010903
 111.782   37.642   17.813 0.022874
 111.782   44.925   17.813 0.064228
 111.782   -2.412   24.120 0.000442
 111.782    4.870   24.120 0.015287
 111.782   12.153   24.120 0.021664
 111.782   19.435   24.120 0.018997
 111.782   26.718   24.120 0.018840
 111.782   34.001   24.120 0.001686
 111.782   41.283   24.120 0.077079
 111.782   -6.054   30.427 0.000226
 111.782    1.229   30.427 0.009098
 111.782    8.512   30.427 0.021089
 111.782   15.794   30.427 0.042485
 111.782   23.077   30.427 0.021044
 111.782   30.359   30.427 0.013102
 111.782   37.642   30.427 0.031285
 111.782   44.925   30.427 0.057751
 111.782   -2.412   36.734 0.001050
 111.782    4.870   36.734 0.014322
 111.782   12.153   36.734 0.031197
 111.782   19.435   36.734 0.029055
 111.782   26.718   36.734 0.031269
 111.782   34.001   36.734 0.050894
 111.782   41.283   36.734 0.074495
 111.782   48.566   36.734 0.042321
 111.782    1.229   43.040 0.000730
 111.782    8.512   43.040 0.011181
 111.782   15.794   43.040 0.016599
 111.782   23.077   43.040 0.005949
 111.782   30.359   43.040 0.013620
 111.782   37.642   43.040 0.069298
 111.782   44.925   43.040 0.041044
 111.782   -2.412   49.347 0.000063
 111.782    4.870   49.347 0.000479
 111.782   12.153   49.347 0.013463
 111.782   19.435   49.347 0.008414
 111.782   26.718   49.347 0.010773
 111.782   34.001   49.347 0.025261
 111.782   41.283   49.347 0.020203
 111.782   48.566   49.347 0.003593
 111.782    8.512   55.654 0.002695
 111.782   15.794   55.654 0.023607
 111.782   23.077   55.654 0.043537
 111.782   30.359   55.654 0.051525
 111.782   37.642   55.654 0.010041
 111.782   44.925   55.654 0.001015
 111.782   12.153   61.961 0.002707
 111.782   19.435   61.961 0.012745
 111.782   26.718   61.961 0.020869
 111.782   34.001   61.961 0.007792
 111.782   41.283   61.961 0.000604
 111.782   23.077   68.268 0.000497
 111.782   30.359   68.268 0.000672
 111.782   37.642   68.268 0.000358
 108.295   37.969   -8.358 0.017351
 108.295   19.218   -1.863 0.034749
 108.295   26.718   -1.863 0.021287
 108.295   34.219   -1.863 0.031796
 108.295   41.719   -1.863 0.036891
 108.295    0.466    4.633 0.000010
 108.295    7.967    4.633 0.008477
 108.295   15.467    4.633 0.022574
 108.295   22.968    4.633 0.002339
 108.295   30.468    4.633 0.000424
 108.295   37.969    4.633 0.063978
 108.295   -3.284   11.128 0.000005
 108.295    4.217   11.128 0.000796
 108.295   11.717   11.128 0.017661
 108.295   19.218   11.128 0.009446
 108.295   26.718   11.128 0.002036
 108.295   34.219   11.128 0.022819
 108.295   41.719   11.128 0.075094
 108.295    0.466   17.624 0.000154
 108.295    7.967   17.624 0.012277
 108.295   15.467   17.624 0.026538
 108.295   22.968   17.624 0.016627
 108.295   30.468   17.624 0.007890
 108.295   37.969   17.624 0.025838
 108.295   45.469   17.624 0.063207
 108.295   -3.284   24.120 0.000008
 108.295    4.217   24.120 0.005760
 108.295   11.717   24.120 0.026085
 108.295   19.218   24.120 0.064797
 108.295   26.718   24.120 0.012702
 108.295   34.219   24.120 0.002875
 108.295   41.719   24.120 0.085179
 108.295   49.220   24.120 0.064661
 108.295    0.466   30.615 0.000865
 108.295    7.967   30.615 0.012879
 108.295   15.467   30.615 0.019211
 108.295   22.968   30.615 0.036745
 108.295   30.468   30.615 0.005474
 108.295   37.969   30.615 0.005810
 108.295   45.469   30.615 0.052992
 108.295   -3.284   37.111 0.000001
 108.295    4.217   37.111 0.001119
 108.295   11.717   37.111 0.011742
 108.295   19.218   37.111 0.027327
 108.295   26.718   37.111 0.007425
 108.295   34.219   37.111 0.002854
 108.295   41.719   37.111 0.066986
 108.295   49.220   37.111 0.032325
 108.295    0.466   43.607 0.000006
 108.295    7.967   43.607 0.001234
 108.295   15.467   43.607 0.018327
 108.295   22.968   43.607 0.005792
 108.295   30.468   43.607 0.002838
 108.295   37.969   43.607 0.043039
 108.295   45.469   43.607 0.025838
 108.295   52.970   43.607 0.001482
 108.295    4.217   50.102 0.000016
 108.295   11.717   50.102 0.008698
 108.295   19.218   50.102 0.015784
 108.295   26.718   50.102 0.042084
 108.295   34.219   50.102 0.028316
 108.295   41.719   50.102 0.017693
 108.295   49.220   50.102 0.001755
 108.295    7.967   56.598 0.000159
 108.295   15.467   56.598 0.011778
 108.295   22.968   56.598 0.034704
 108.295   30.468   56.598 0.061893
 108.295   37.969   56.598 0.021619
 108.295   45.469   56.598 0.001020
 108.295   19.218   63.093 0.008446
 108.295   26.718   63.093 0.023257
 108.295   34.219   63.093 0.020319
 108.295   41.719   63.093 0.000722
 108.295   30.468   69.589 0.001049
 108.295   37.969   69.589 0.000391
 104.765   42.367   -6.374 0.026597
 104.765   22.806    0.402 0.039845
 104.765   30.630    0.402 0.045498
 104.765   38.455    0.402 0.044328
 104.765   46.280    0.402 0.041446
 104.765    3.244    7.179 0.000055
 104.765   11.069    7.179 0.008525
 104.765   18.893    7.179 0.024260
 104.765   26.718    7.179 0.004513
 104.765   34.543    7.179 0.009193
 104.765   42.367    7.179 0.062156
 104.765   -0.668   13.955 0.000001
 104.765    7.156   13.955 0.000672
 104.765   14.981   13.955 0.018879
 104.765   22.806   13.955 0.020886
 104.765   30.630   13.955 0.001012
 104.765   38.455   13.955 0.020399
 104.765    3.244   20.731 0.000001
 104.765   11.069   20.731 0.006420
 104.765   18.893   20.731 0.063612
 104.765   26.718   20.731 0.023976
 104.765   34.543   20.731 0.000297
 104.765   42.367   20.731 0.045336
 104.765   -0.668   27.508 0.000002
 104.765    7.156   27.508 0.000321
 104.765   14.981   27.508 0.018387
 104.765   22.806   27.508 0.079022
 104.765   30.630   27.508 0.006546
 104.765   38.455   27.508 0.015776
 104.765   46.280   27.508 0.061335
 104.765    3.244   34.284 0.000016
 104.765   11.069   34.284 0.001139
 104.765   18.893   34.284 0.014015
 104.765   26.718   34.284 0.004568
 104.765   34.543   34.284 0.007623
 104.765   42.367   34.284 0.038081
 104.765   50.192   34.284 0.025865
 104.765   14.981   41.061 0.009053
 104.765   22.806   41.061 0.004176
 104.765   30.630   41.061 0.012030
 104.765   38.455   41.061 0.074015
 104.765   46.280   41.061 0.036003
 104.765   54.104   41.061 0.000749
 104.765   11.069   47.837 0.005510
 104.765   18.893   47.837 0.028639
 104.765   26.718   47.837 0.049295
 104.765   34.543   47.837 0.019974
 104.765   42.367   47.837 0.030186
 104.765   50.192   47.837 0.004765
 104.765   14.981   54.613 0.015311
 104.765   22.806   54.613 0.064218
 104.765   30.630   54.613 0.030985
 104.765   38.455   54.613 0.012809
 104.765   46.280   54.613 0.003110
 104.765   18.893   61.390 0.016120
 104.765   26.718   61.390 0.035648
 104.765   34.543   61.390 0.015792
 104.765   42.367   61.390 0.000653
 104.765   30.630   68.166 0.004676
 104.765   38.455   68.166 0.000441
 101.201   43.104   -7.809 0.020596
 101.201   22.622   -0.714 0.004311
 101.201   30.815   -0.714 0.014907
 101.201   39.007   -0.714 0.057290
 101.201   47.200   -0.714 0.038146
 101.201   18.525    6.382 0.007726
 101.201   26.718    6.382 0.015018
 101.201   34.911    6.382 0.060645
 101.201   43.104    6.382 0.064985
 101.201    6.236   13.477 0.000088
 101.201   14.429   13.477 0.005225
 101.201   22.622   13.477 0.024947
 101.201   30.815   13.477 0.012185
 101.201   39.007   13.477 0.021513
 101.201   10.332   20.572 0.000144
 101.201   18.525   20.572 0.033949
 101.201   26.718   20.572 0.045561
 101.201   34.911   20.572 0.001474
 101.201   43.104   20.572 0.029121
 101.201   51.297   20.572 0.039763
 101.201   14.429   27.667 0.015510
 101.201   22.622   27.667 0.034926
 101.201   30.815   27.667 0.008158
 101.201   39.007   27.667 0.007881
 101.201   47.200   27.667 0.043145
 101.201   18.525   34.763 0.018903
 101.201   26.718   34.763 0.039803
 101.201   34.911   34.763 0.004133
 101.201   43.104   34.763 0.038967
 101.201   51.297   34.763 0.024654
 101.201   22.622   41.858 0.018534
 101.201   30.815   41.858 0.075373
 101.201   39.007   41.858 0.050030
 101.201   47.200   41.858 0.042481
 101.201   55.393   41.858 0.001262
 101.201   18.525   48.953 0.029221
 101.201   26.718   48.953 0.045632
 101.201   34.911   48.953 0.032842
 101.201   43.104   48.953 0.028446
 101.201   51.297   48.953 0.004852
 101.201   22.622   56.048 0.036653
 101.201   30.815   56.048 0.039613
 101.201   39.007   56.048 0.012498
 101.201   47.200   56.048 0.001419
 101.201   26.718   63.144 0.026649
 101.201   34.911   63.144 0.012117
 101.201   43.104   63.144 0.000806
  97.519   43.891   -5.624 0.026711
  97.519   31.011    1.812 0.024909
  97.519   39.598    1.812 0.064434
  97.519   48.184    1.812 0.045024
  97.519   26.718    9.248 0.013140
  97.519   35.304    9.248 0.048662
  97.519   43.891    9.248 0.062366
  97.519   22.425   16.684 0.005653
  97.519   31.011   16.684 0.004047
  97.519   39.598   16.684 0.054771
  97.519   48.184   16.684 0.047072
  97.519   26.718   24.120 0.013529
  97.519   35.304   24.120 0.023815
  97.519   43.891   24.120 0.062036
  97.519   52.477   24.120 0.035174
  97.519   31.011   31.556 0.097300
  97.519   39.598   31.556 0.015162
  97.519   48.184   31.556 0.030091
  97.519   26.718   38.992 0.064068
  97.519   35.304   38.992 0.038866
  97.519   43.891   38.992 0.019023
  97.519   52.477   38.992 0.012790
  97.519   22.425   46.428 0.030990
  97.519   31.011   46.428 0.021811
  97.519   39.598   46.428 0.009687
  97.519   48.184   46.428 0.010984
  97.519   56.770   46.428 0.002157
  97.519   26.718   53.863 0.006857
  97.519   35.304   53.863 0.001974
  97.519   43.891   53.863 0.002604
  97.519   52.477   53.863 0.001777
  97.519   22.425   61.299 0.000718
  97.519   31.011   61.299 0.000870
  97.519   39.598   61.299 0.000569
  97.519   48.184   61.299 0.000541
  93.706   35.752    0.648 0.027777
  93.706   44.787    0.648 0.042408
  93.706   31.235    8.472 0.018061
  93.706   40.270    8.472 0.051042
  93.706   49.304    8.472 0.043263
  93.706   35.752   16.296 0.027543
  93.706   44.787   16.296 0.049460
  93.706   31.235   24.120 0.012287
  93.706   40.270   24.120 0.057559
  93.706   49.304   24.120 0.049003
  93.706   35.752   31.944 0.049446
  93.706   44.787   31.944 0.038432
  93.706   53.821   31.944 0.012476
  93.706   31.235   39.768 0.027075
  93.706   40.270   39.768 0.017423
  93.706   49.304   39.768 0.001224
  93.706   58.338   39.768 0.000360
  93.706   26.718   47.592 0.006614
  93.706   35.752   47.592 0.007561
  93.706   44.787   47.592 0.003031
  93.706   53.821   47.592 0.000567
  93.706   31.235   55.415 0.005362
  93.706   40.270   55.415 0.004187
  93.706   49.304   55.415 0.001027
  93.706   35.752   63.239 0.001485
  89.784   36.048    3.921 0.035677
  89.784   45.377    3.921 0.044826
  89.784   40.712   12.000 0.037334
  89.784   50.042   12.000 0.034675
  89.784   36.048   20.080 0.010280
  89.784   45.377   20.080 0.033127
  89.784   54.707   20.080 0.018993
  89.784   40.712   28.159 0.025095
  89.784   50.042   28.159 0.021086
  89.784   36.048   36.239 0.021913
  89.784   45.377   36.239 0.011470
  89.784   54.707   36.239 0.000500
  89.784   40.712   44.319 0.002254
  89.784   50.042   44.319 0.000016
  89.784   59.372   44.319 0.000003
  89.784   36.048   52.398 0.000735
  89.784   45.377   52.398 0.000026
  89.784   54.707   52.398 0.000001
  85.727   36.147    3.706 0.029613
  85.727   45.576    3.706 0.034211
  85.727   40.861   11.871 0.028126
  85.727   50.290   11.871 0.022194
  85.727   45.576   20.037 0.011059
  85.727   55.004   20.037 0.005133
  85.727   40.861   28.202 0.000770
  85.727   50.290   28.202 0.002717
  85.727   59.719   28.202 0.001059
  85.727   45.576   36.368 0.000462
  85.727   55.004   36.368 0.000467
  85.727   40.861   44.533 0.000145
  85.727   50.290   44.533 0.000136
  85.727   59.719   44.533 0.000053
  85.727   55.004   52.699 0.000004
