Stopping powers for water
Temin(Mev), Tpmin(MeV), Tpmax(Mev), dtp(Mev), ndata
0.100000 0.500000 350.000000 0.500000 700
====================================
Energy(MeV), Sw(Mev/cm), Mw(Mev/cm), Lw(Mev/cm) b
0.500    0    0    4.132E+02    0.258880627998579
1.000    0    0    2.608E+02    0.325839457401157
1.500    0    0    1.957E+02    0.275052109688888
2.000    0    0    1.586E+02    0.250961523362462
2.500    0    0    1.344E+02    0.235876194522081
3.000    0    0    1.172E+02    0.225153496149908
3.500    0    0    1.042E+02    0.216955559757849
4.000    0    0    9.404E+01    0.210383828906745
4.500    0    0    8.586E+01    0.204937433015540
5.000    0    0    7.911E+01    0.200310915464646
5.500    0    0    7.343E+01    0.196305356100861
6.000    0    0    6.858E+01    0.192784559761714
6.500    0    0    6.438E+01    0.189651519031753
7.000    0    0    6.071E+01    0.186834892967395
7.500    0    0    5.747E+01    0.184280810974802
8.000    0    0    5.460E+01    0.181947680738565
8.500    0    0    5.202E+01    0.179802775724130
9.000    0    0    4.969E+01    0.177819921071190
9.500    0    0    4.759E+01    0.175977881581177
10.00    0    0    4.567E+01    0.174259212241479
10.50    0    0    4.391E+01    0.172649421594655
11.00    0    0    4.230E+01    0.171136351664920
11.50    0    0    4.081E+01    0.169709710900161
12.00    0    0    3.943E+01    0.168360717234679
12.50    0    0    3.815E+01    0.167081821719934
13.00    0    0    3.696E+01    0.165866491985472
13.50    0    0    3.585E+01    0.164709040736731
14.00    0    0    3.481E+01    0.163604488574177
14.50    0    0    3.384E+01    0.162548453265635
15.00    0    0    3.292E+01    0.161537059620721
15.50    0    0    3.206E+01    0.160566865564921
16.00    0    0    3.124E+01    0.159634801065337
16.50    0    0    3.047E+01    0.158738117336582
17.00    0    0    2.974E+01    0.157874344333066
17.50    0    0    2.905E+01    0.157041254968645
18.00    0    0    2.840E+01    0.156236834834679
18.50    0    0    2.777E+01    0.155459256440517
19.00    0    0    2.718E+01    0.154706857195141
19.50    0    0    2.661E+01    0.153978120501509
20.00    0    0    2.607E+01    0.153271659454367
20.50    0    0    2.555E+01    0.152586202725483
21.00    0    0    2.505E+01    0.151920582296450
21.50    0    0    2.458E+01    0.151273722758459
22.00    0    0    2.412E+01    0.150644631946340
22.50    0    0    2.369E+01    0.150032392714100
23.00    0    0    2.327E+01    0.149436155690047
23.50    0    0    2.287E+01    0.148855132875636
24.00    0    0    2.248E+01    0.148288591974145
24.50    0    0    2.211E+01    0.147735851352017
25.00    0    0    2.175E+01    0.147196275550771
25.50    0    0    2.140E+01    0.146669271279521
26.00    0    0    2.107E+01    0.146154283828089
26.50    0    0    2.074E+01    0.145650793848843
27.00    0    0    2.043E+01    0.145158314463704
27.50    0    0    2.013E+01    0.144676388657670
28.00    0    0    1.984E+01    0.144204586925601
28.50    0    0    1.956E+01    0.143742505143735
29.00    0    0    1.928E+01    0.143289762640747
29.50    0    0    1.902E+01    0.142846000446729
30.00    0    0    1.876E+01    0.142410879700466
30.50    0    0    1.851E+01    0.141984080198722
31.00    0    0    1.827E+01    0.141565299072525
31.50    0    0    1.803E+01    0.141154249577457
32.00    0    0    1.781E+01    0.140750659986403
32.50    0    0    1.758E+01    0.140354272574740
33.00    0    0    1.737E+01    0.139964842688895
33.50    0    0    1.716E+01    0.139582137890107
34.00    0    0    1.696E+01    0.139205937166413
34.50    0    0    1.676E+01    0.138836030206542
35.00    0    0    1.656E+01    0.138472216729908
35.50    0    0    1.637E+01    0.138114305867594
36.00    0    0    1.619E+01    0.137762115589853
36.50    0    0    1.601E+01    0.137415472176050
37.00    0    0    1.584E+01    0.137074209723331
37.50    0    0    1.567E+01    0.136738169690587
38.00    0    0    1.550E+01    0.136407200474879
38.50    0    0    1.534E+01    0.136081157017591
39.00    0    0    1.518E+01    0.135759900437801
39.50    0    0    1.503E+01    0.135443297690691
40.00    0    0    1.488E+01    0.135131221249027
40.50    0    0    1.473E+01    0.134823548805899
41.00    0    0    1.458E+01    0.134520162996738
41.50    0    0    1.444E+01    0.134220951139642
42.00    0    0    1.431E+01    0.133925804992470
42.50    0    0    1.417E+01    0.133634620524898
43.00    0    0    1.404E+01    0.133347297705150
43.50    0    0    1.391E+01    0.133063740299765
44.00    0    0    1.378E+01    0.132783855685588
44.50    0    0    1.366E+01    0.124885301696328
45.00    0    0    1.354E+01    0.091976177478238
45.50    0    0    1.342E+01    0.066622604305263
46.00    0    0    1.330E+01    0.066541539828702
46.50    0    0    1.319E+01    0.066461292979225
47.00    0    0    1.308E+01    0.066381847689254
47.50    0    0    1.297E+01    0.066303188411108
48.00    0    0    1.286E+01    0.066225300094442
48.50    0    0    1.275E+01    0.066148168164846
49.00    0    0    1.265E+01    0.066071778503750
49.50    0    0    1.255E+01    0.065996117429209
50.00    0    0    1.245E+01    0.065921171677822
50.50    0    0    1.235E+01    0.065846928387491
51.00    0    0    1.225E+01    0.065773375081009
51.50    0    0    1.216E+01    0.065700499650670
52.00    0    0    1.207E+01    0.065628290343438
52.50    0    0    1.198E+01    0.065556735746973
53.00    0    0    1.189E+01    0.065485824776298
53.50    0    0    1.180E+01    0.065415546661055
54.00    0    0    1.171E+01    0.065345890933460
54.50    0    0    1.163E+01    0.065276847416892
55.00    0    0    1.154E+01    0.065208406214841
55.50    0    0    1.146E+01    0.065140557700409
56.00    0    0    1.138E+01    0.065073292506449
56.50    0    0    1.130E+01    0.065006601515984
57.00    0    0    1.122E+01    0.064940475853196
57.50    0    0    1.115E+01    0.064874906874730
58.00    0    0    1.107E+01    0.064809886161317
58.50    0    0    1.100E+01    0.064745405509973
59.00    0    0    1.092E+01    0.064681456926438
59.50    0    0    1.085E+01    0.064618032617842
60.00    0    0    1.078E+01    0.064555124985829
60.50    0    0    1.071E+01    0.064492726619910
61.00    0    0    1.064E+01    0.064430830291126
61.50    0    0    1.057E+01    0.064369428945969
62.00    0    0    1.051E+01    0.064308515700462
62.50    0    0    1.044E+01    0.064248083834741
63.00    0    0    1.038E+01    0.064188126787566
63.50    0    0    1.031E+01    0.064128638151111
64.00    0    0    1.025E+01    0.064069611666214
64.50    0    0    1.019E+01    0.064011041217536
65.00    0    0    1.013E+01    0.063952920828985
65.50    0    0    1.007E+01    0.063895244659352
66.00    0    0    1.001E+01    0.063838006998225
66.50    0    0    9.947E+00    0.063781202261806
67.00    0    0    9.890E+00    0.063724824989032
67.50    0    0    9.833E+00    0.063668869837982
68.00    0    0    9.776E+00    0.063613331582150
68.50    0    0    9.721E+00    0.063558205107047
69.00    0    0    9.666E+00    0.063503485406843
69.50    0    0    9.612E+00    0.063449167581182
70.00    0    0    9.559E+00    0.063395246832121
70.50    0    0    9.506E+00    0.063341718461067
71.00    0    0    9.455E+00    0.063288577865987
71.50    0    0    9.403E+00    0.063235820538678
72.00    0    0    9.353E+00    0.063183442062060
72.50    0    0    9.303E+00    0.063131438107486
73.00    0    0    9.254E+00    0.063079804432426
73.50    0    0    9.205E+00    0.063028536878067
74.00    0    0    9.157E+00    0.062977631367007
74.50    0    0    9.110E+00    0.062927083900863
75.00    0    0    9.063E+00    0.062876890558239
75.50    0    0    9.017E+00    0.062827047492788
76.00    0    0    8.971E+00    0.062777550930881
76.50    0    0    8.926E+00    0.062728397169908
77.00    0    0    8.882E+00    0.062679582576447
77.50    0    0    8.838E+00    0.062631103584231
78.00    0    0    8.794E+00    0.062582956692423
78.50    0    0    8.751E+00    0.062535138464102
79.00    0    0    8.709E+00    0.062487645524577
79.50    0    0    8.667E+00    0.062440474559635
80.00    0    0    8.625E+00    0.062393622314085
80.50    0    0    8.584E+00    0.062347085590382
81.00    0    0    8.544E+00    0.062300861247039
81.50    0    0    8.504E+00    0.062254946197221
82.00    0    0    8.464E+00    0.062209337407574
82.50    0    0    8.425E+00    0.062164031896813
83.00    0    0    8.387E+00    0.062119026734244
83.50    0    0    8.348E+00    0.062074319038908
84.00    0    0    8.311E+00    0.062029905978142
84.50    0    0    8.273E+00    0.061985784766439
85.00    0    0    8.236E+00    0.061941952664465
85.50    0    0    8.200E+00    0.061898406977762
86.00    0    0    8.163E+00    0.061855145055894
86.50    0    0    8.128E+00    0.061812164291310
87.00    0    0    8.092E+00    0.061769462118356
87.50    0    0    8.057E+00    0.061727036012324
88.00    0    0    8.023E+00    0.061684883488499
88.50    0    0    7.988E+00    0.061643002101296
89.00    0    0    7.954E+00    0.061601389443398
89.50    0    0    7.921E+00    0.061560043144732
90.00    0    0    7.888E+00    0.061518960871791
90.50    0    0    7.855E+00    0.061478140326776
91.00    0    0    7.822E+00    0.061437579246846
91.50    0    0    7.790E+00    0.061397275403268
92.00    0    0    7.758E+00    0.061357226600774
92.50    0    0    7.727E+00    0.061317430676772
93.00    0    0    7.695E+00    0.061277885500546
93.50    0    0    7.664E+00    0.061238588972807
94.00    0    0    7.634E+00    0.061199539024859
94.50    0    0    7.603E+00    0.061160733617985
95.00    0    0    7.573E+00    0.061122170742801
95.50    0    0    7.544E+00    0.061083848418709
96.00    0    0    7.514E+00    0.061045764693235
96.50    0    0    7.485E+00    0.061007917641367
97.00    0    0    7.456E+00    0.060970305365215
97.50    0    0    7.428E+00    0.060932925993312
98.00    0    0    7.400E+00    0.060895777680030
98.50    0    0    7.372E+00    0.060858858605152
99.00    0    0    7.344E+00    0.060822166973345
99.50    0    0    7.316E+00    0.060785701013617
100.0    0    0    7.289E+00    0.060749458978872
100.5    0    0    7.262E+00    0.060713439145470
101.0    0    0    7.235E+00    0.060677639812651
101.5    0    0    7.209E+00    0.060642059302217
102.0    0    0    7.183E+00    0.060606695958043
102.5    0    0    7.157E+00    0.060571548145632
103.0    0    0    7.131E+00    0.060536614251696
103.5    0    0    7.105E+00    0.060501892683785
104.0    0    0    7.080E+00    0.060467381869894
104.5    0    0    7.055E+00    0.060433080258001
105.0    0    0    7.030E+00    0.060398986315806
105.5    0    0    7.006E+00    0.060365098530279
106.0    0    0    6.981E+00    0.060331415407324
106.5    0    0    6.957E+00    0.060297935471465
107.0    0    0    6.933E+00    0.060264657265384
107.5    0    0    6.909E+00    0.060231579349767
108.0    0    0    6.886E+00    0.060198700302811
108.5    0    0    6.863E+00    0.060166018720036
109.0    0    0    6.839E+00    0.060133533213919
109.5    0    0    6.816E+00    0.060101242413511
110.0    0    0    6.794E+00    0.060069144964278
110.5    0    0    6.771E+00    0.060037239527711
111.0    0    0    6.749E+00    0.060005524781159
111.5    0    0    6.727E+00    0.059973999417370
112.0    0    0    6.705E+00    0.059942662144418
112.5    0    0    6.683E+00    0.059911511685312
113.0    0    0    6.661E+00    0.059880546777684
113.5    0    0    6.640E+00    0.059849766173803
114.0    0    0    6.619E+00    0.059819168639969
114.5    0    0    6.598E+00    0.059788752956519
115.0    0    0    6.577E+00    0.059758517917601
115.5    0    0    6.556E+00    0.059728462330670
116.0    0    0    6.535E+00    0.059698585016695
116.5    0    0    6.515E+00    0.059668884809522
117.0    0    0    6.495E+00    0.059639360555833
117.5    0    0    6.475E+00    0.059610011115079
118.0    0    0    6.455E+00    0.059580835358962
118.5    0    0    6.435E+00    0.059551832171514
119.0    0    0    6.415E+00    0.059523000448700
119.5    0    0    6.396E+00    0.059494339098340
120.0    0    0    6.377E+00    0.059465847039960
120.5    0    0    6.358E+00    0.059437523204381
121.0    0    0    6.339E+00    0.059409366533780
121.5    0    0    6.320E+00    0.059381375981354
122.0    0    0    6.301E+00    0.059353550511297
122.5    0    0    6.282E+00    0.059325889098591
123.0    0    0    6.264E+00    0.059298390728522
123.5    0    0    6.246E+00    0.059271054397003
124.0    0    0    6.228E+00    0.059243879110161
124.5    0    0    6.210E+00    0.059216863884127
125.0    0    0    6.192E+00    0.059190007745069
125.5    0    0    6.174E+00    0.059163309728879
126.0    0    0    6.157E+00    0.059136768881017
126.5    0    0    6.139E+00    0.059110384256563
127.0    0    0    6.122E+00    0.059084154919832
127.5    0    0    6.105E+00    0.059058079944361
128.0    0    0    6.088E+00    0.059032158412788
128.5    0    0    6.071E+00    0.059006389416706
129.0    0    0    6.054E+00    0.058980772056419
129.5    0    0    6.037E+00    0.058955305440872
130.0    0    0    6.021E+00    0.058929988687699
130.5    0    0    6.004E+00    0.058904820922894
131.0    0    0    5.988E+00    0.058879801280711
131.5    0    0    5.972E+00    0.058854928903506
132.0    0    0    5.956E+00    0.058830202941880
132.5    0    0    5.940E+00    0.058805622554347
133.0    0    0    5.924E+00    0.058781186907069
133.5    0    0    5.908E+00    0.058756895174040
134.0    0    0    5.892E+00    0.058732746536958
134.5    0    0    5.877E+00    0.058708740184892
135.0    0    0    5.861E+00    0.058684875314345
135.5    0    0    5.846E+00    0.058661151129222
136.0    0    0    5.831E+00    0.058637566840416
136.5    0    0    5.816E+00    0.058614121666033
137.0    0    0    5.801E+00    0.058590814831274
137.5    0    0    5.786E+00    0.058567645568110
138.0    0    0    5.771E+00    0.058544613115299
138.5    0    0    5.757E+00    0.058521716718430
139.0    0    0    5.742E+00    0.058498955629698
139.5    0    0    5.728E+00    0.058476329107731
140.0    0    0    5.713E+00    0.058453836417704
140.5    0    0    5.699E+00    0.058431476831174
141.0    0    0    5.685E+00    0.058409249625905
141.5    0    0    5.671E+00    0.058387154085878
142.0    0    0    5.657E+00    0.058365189501174
142.5    0    0    5.643E+00    0.058343355168013
143.0    0    0    5.629E+00    0.058321650388571
143.5    0    0    5.615E+00    0.058300074470649
144.0    0    0    5.602E+00    0.058278626728212
144.5    0    0    5.588E+00    0.058257306480714
145.0    0    0    5.575E+00    0.058236113053276
145.5    0    0    5.561E+00    0.058215045776805
146.0    0    0    5.548E+00    0.058194103987439
146.5    0    0    5.535E+00    0.058173287027057
147.0    0    0    5.522E+00    0.058152594242665
147.5    0    0    5.509E+00    0.058132024986683
148.0    0    0    5.496E+00    0.058111578616826
148.5    0    0    5.483E+00    0.058091254495851
149.0    0    0    5.470E+00    0.058071051991849
149.5    0    0    5.457E+00    0.058050970477744
150.0    0    0    5.445E+00    0.058031009331454
150.5    0    0    5.432E+00    0.058011167935992
151.0    0    0    5.420E+00    0.057991445679214
151.5    0    0    5.408E+00    0.057971841953587
152.0    0    0    5.395E+00    0.057952356156529
152.5    0    0    5.383E+00    0.057932987690181
153.0    0    0    5.371E+00    0.057913735961087
153.5    0    0    5.359E+00    0.057894600380595
154.0    0    0    5.347E+00    0.057875580364496
154.5    0    0    5.335E+00    0.057856675333082
155.0    0    0    5.323E+00    0.057837884711113
155.5    0    0    5.311E+00    0.057819207927586
156.0    0    0    5.300E+00    0.057800644415984
156.5    0    0    5.288E+00    0.057782193613914
157.0    0    0    5.276E+00    0.057763854963201
157.5    0    0    5.265E+00    0.057745627910034
158.0    0    0    5.254E+00    0.057727511904670
158.5    0    0    5.242E+00    0.057709506401292
159.0    0    0    5.231E+00    0.057691610858130
159.5    0    0    5.220E+00    0.057673824737565
160.0    0    0    5.209E+00    0.057656147505843
160.5    0    0    5.198E+00    0.057638578633065
161.0    0    0    5.187E+00    0.057621117593183
161.5    0    0    5.176E+00    0.057603763864065
162.0    0    0    5.165E+00    0.057586516927277
162.5    0    0    5.154E+00    0.057569376268008
163.0    0    0    5.143E+00    0.057552341375340
163.5    0    0    5.133E+00    0.057535411741875
164.0    0    0    5.122E+00    0.057518586863791
164.5    0    0    5.111E+00    0.057501866240913
165.0    0    0    5.101E+00    0.057485249376664
165.5    0    0    5.090E+00    0.057468735777705
166.0    0    0    5.080E+00    0.057452324954365
166.5    0    0    5.070E+00    0.057436016420378
167.0    0    0    5.059E+00    0.057419809692710
167.5    0    0    5.049E+00    0.057403704291871
168.0    0    0    5.039E+00    0.057387699741509
168.5    0    0    5.029E+00    0.057371795568566
169.0    0    0    5.019E+00    0.057355991303374
169.5    0    0    5.009E+00    0.057340286479320
170.0    0    0    4.999E+00    0.057324680632966
170.5    0    0    4.989E+00    0.057309173304133
171.0    0    0    4.979E+00    0.057293764035593
171.5    0    0    4.970E+00    0.057278452373261
172.0    0    0    4.960E+00    0.057263237866171
172.5    0    0    4.950E+00    0.057248120066274
173.0    0    0    4.941E+00    0.057233098528520
173.5    0    0    4.931E+00    0.057218172810805
174.0    0    0    4.922E+00    0.057203342473915
174.5    0    0    4.912E+00    0.057188607081621
175.0    0    0    4.903E+00    0.057173966200570
175.5    0    0    4.894E+00    0.057159419400062
176.0    0    0    4.884E+00    0.057144966252334
176.5    0    0    4.875E+00    0.057130606332429
177.0    0    0    4.866E+00    0.057116339218083
177.5    0    0    4.857E+00    0.057102164489808
178.0    0    0    4.848E+00    0.057088081730729
178.5    0    0    4.839E+00    0.057074090526713
179.0    0    0    4.830E+00    0.057060190466128
179.5    0    0    4.821E+00    0.057046381140196
180.0    0    0    4.812E+00    0.057032662142710
180.5    0    0    4.803E+00    0.057019033069770
181.0    0    0    4.794E+00    0.057005493520176
181.5    0    0    4.786E+00    0.056992043095371
182.0    0    0    4.777E+00    0.056978681399091
182.5    0    0    4.768E+00    0.056965408037662
183.0    0    0    4.760E+00    0.056952222619887
183.5    0    0    4.751E+00    0.056939124756778
184.0    0    0    4.743E+00    0.056926114062115
184.5    0    0    4.734E+00    0.056913190151770
185.0    0    0    4.726E+00    0.056900352644005
185.5    0    0    4.717E+00    0.056887601159512
186.0    0    0    4.709E+00    0.056874935321199
186.5    0    0    4.701E+00    0.056862354754482
187.0    0    0    4.693E+00    0.056849859086689
187.5    0    0    4.684E+00    0.056837447947720
188.0    0    0    4.676E+00    0.056825120969583
188.5    0    0    4.668E+00    0.056812877786446
189.0    0    0    4.660E+00    0.056800718034738
189.5    0    0    4.652E+00    0.056788641353081
190.0    0    0    4.644E+00    0.056776647382197
190.5    0    0    4.636E+00    0.056764735764932
191.0    0    0    4.628E+00    0.056752906146325
191.5    0    0    4.620E+00    0.056741158173283
192.0    0    0    4.612E+00    0.056729491495168
192.5    0    0    4.605E+00    0.056717905763208
193.0    0    0    4.597E+00    0.056706400630386
193.5    0    0    4.589E+00    0.056694975752143
194.0    0    0    4.581E+00    0.056683630785819
194.5    0    0    4.574E+00    0.056672365390583
195.0    0    0    4.566E+00    0.056661179227589
195.5    0    0    4.559E+00    0.056650071960211
196.0    0    0    4.551E+00    0.056639043253453
196.5    0    0    4.544E+00    0.056628092774254
197.0    0    0    4.536E+00    0.056617220191721
197.5    0    0    4.529E+00    0.056606425176597
198.0    0    0    4.521E+00    0.056595707401628
198.5    0    0    4.514E+00    0.056585066541334
199.0    0    0    4.507E+00    0.056574502271959
199.5    0    0    4.499E+00    0.056564014271810
200.0    0    0    4.492E+00    0.056553602221091
200.5    0    0    4.485E+00    0.056543265801419
201.0    0    0    4.478E+00    0.056533004696328
201.5    0    0    4.471E+00    0.056522818591200
202.0    0    0    4.464E+00    0.056512707173320
202.5    0    0    4.456E+00    0.056502670131238
203.0    0    0    4.449E+00    0.056492707155681
203.5    0    0    4.442E+00    0.056482817938965
204.0    0    0    4.435E+00    0.056473002174728
204.5    0    0    4.429E+00    0.056463259558889
205.0    0    0    4.422E+00    0.056453589788679
205.5    0    0    4.415E+00    0.056443992562963
206.0    0    0    4.408E+00    0.056434467582282
206.5    0    0    4.401E+00    0.056425014548946
207.0    0    0    4.394E+00    0.056415633166748
207.5    0    0    4.388E+00    0.056406323141044
208.0    0    0    4.381E+00    0.056397084178820
208.5    0    0    4.374E+00    0.056387915988548
209.0    0    0    4.368E+00    0.056378818280693
209.5    0    0    4.361E+00    0.056369790766675
210.0    0    0    4.354E+00    0.056360833159570
210.5    0    0    4.348E+00    0.056351945174414
211.0    0    0    4.341E+00    0.056343126527315
211.5    0    0    4.335E+00    0.056334376935956
212.0    0    0    4.328E+00    0.056325696119626
212.5    0    0    4.322E+00    0.056317083799120
213.0    0    0    4.315E+00    0.056308539696468
213.5    0    0    4.309E+00    0.056300063535382
214.0    0    0    4.303E+00    0.056291655040940
214.5    0    0    4.296E+00    0.056283313939548
215.0    0    0    4.290E+00    0.056275039959296
215.5    0    0    4.284E+00    0.056266832829431
216.0    0    0    4.278E+00    0.056258692280630
216.5    0    0    4.271E+00    0.056250618045074
217.0    0    0    4.265E+00    0.056242609856301
217.5    0    0    4.259E+00    0.056234667449130
218.0    0    0    4.253E+00    0.056226790559860
218.5    0    0    4.247E+00    0.056218978926031
219.0    0    0    4.241E+00    0.056211232286467
219.5    0    0    4.235E+00    0.056203550381499
220.0    0    0    4.229E+00    0.056195932952775
220.5    0    0    4.223E+00    0.056188379742953
221.0    0    0    4.217E+00    0.056180890496349
221.5    0    0    4.211E+00    0.056173464958428
222.0    0    0    4.205E+00    0.056166102875780
222.5    0    0    4.199E+00    0.056158803996630
223.0    0    0    4.193E+00    0.056151568070026
223.5    0    0    4.187E+00    0.056144394846710
224.0    0    0    4.182E+00    0.056137284078288
224.5    0    0    4.176E+00    0.056130235517686
225.0    0    0    4.170E+00    0.056123248919423
225.5    0    0    4.164E+00    0.056116324038681
226.0    0    0    4.159E+00    0.056109460632043
226.5    0    0    4.153E+00    0.056102658457606
227.0    0    0    4.147E+00    0.056095917274399
227.5    0    0    4.142E+00    0.056089236842326
228.0    0    0    4.136E+00    0.056082616923049
228.5    0    0    4.130E+00    0.056076057279088
229.0    0    0    4.125E+00    0.056069557674089
229.5    0    0    4.119E+00    0.056063117873015
230.0    0    0    4.114E+00    0.056056737641790
230.5    0    0    4.108E+00    0.056050416747563
231.0    0    0    4.103E+00    0.056044154958569
231.5    0    0    4.097E+00    0.056037952044267
232.0    0    0    4.092E+00    0.056031807775117
232.5    0    0    4.087E+00    0.056025721922745
233.0    0    0    4.081E+00    0.056019694259753
233.5    0    0    4.076E+00    0.056013724559948
234.0    0    0    4.070E+00    0.056007812598219
234.5    0    0    4.065E+00    0.056001958150492
235.0    0    0    4.060E+00    0.055996160993791
235.5    0    0    4.055E+00    0.055990420906061
236.0    0    0    4.049E+00    0.055984737666460
236.5    0    0    4.044E+00    0.055979111055214
237.0    0    0    4.039E+00    0.055973540853347
237.5    0    0    4.034E+00    0.055968026843200
238.0    0    0    4.029E+00    0.055962568808034
238.5    0    0    4.023E+00    0.055957166531907
239.0    0    0    4.018E+00    0.055951819800218
239.5    0    0    4.013E+00    0.055946528399302
240.0    0    0    4.008E+00    0.055941292116332
240.5    0    0    4.003E+00    0.055936110739499
241.0    0    0    3.998E+00    0.055930984058106
241.5    0    0    3.993E+00    0.055925911862461
242.0    0    0    3.988E+00    0.055920893943488
242.5    0    0    3.983E+00    0.055915930093492
243.0    0    0    3.978E+00    0.055911020105718
243.5    0    0    3.973E+00    0.055906163773910
244.0    0    0    3.968E+00    0.055901360893228
244.5    0    0    3.963E+00    0.055896611259597
245.0    0    0    3.958E+00    0.055891914669938
245.5    0    0    3.954E+00    0.055887270922027
246.0    0    0    3.949E+00    0.055882679814400
246.5    0    0    3.944E+00    0.055878141146935
247.0    0    0    3.939E+00    0.055873654720100
247.5    0    0    3.934E+00    0.055869220335289
248.0    0    0    3.930E+00    0.055864837794868
248.5    0    0    3.925E+00    0.055860506902065
249.0    0    0    3.920E+00    0.055856227461053
249.5    0    0    3.915E+00    0.055851999276823
250.0    0    0    3.911E+00    0.055847822155228
250.5    0    0    3.906E+00    0.055843695902972
251.0    0    0    3.901E+00    0.055839620327688
251.5    0    0    3.897E+00    0.055835595237965
252.0    0    0    3.892E+00    0.055831620443044
252.5    0    0    3.888E+00    0.055827695753135
253.0    0    0    3.883E+00    0.055823820979185
253.5    0    0    3.879E+00    0.055819995933109
254.0    0    0    3.874E+00    0.055816220427635
254.5    0    0    3.869E+00    0.055812494276071
255.0    0    0    3.865E+00    0.055808817292981
255.5    0    0    3.860E+00    0.055805189293572
256.0    0    0    3.856E+00    0.055801610093690
256.5    0    0    3.852E+00    0.055798079509999
257.0    0    0    3.847E+00    0.055794597360355
257.5    0    0    3.843E+00    0.055791163463009
258.0    0    0    3.838E+00    0.055787777636976
258.5    0    0    3.834E+00    0.055784439702374
259.0    0    0    3.830E+00    0.055781149480155
259.5    0    0    3.825E+00    0.055777906791631
260.0    0    0    3.821E+00    0.055774711458921
260.5    0    0    3.817E+00    0.055771563305282
261.0    0    0    3.812E+00    0.055768462154623
261.5    0    0    3.808E+00    0.055765407831607
262.0    0    0    3.804E+00    0.055762400161370
262.5    0    0    3.799E+00    0.055759438970017
263.0    0    0    3.795E+00    0.055756524084504
263.5    0    0    3.791E+00    0.055753655332481
264.0    0    0    3.787E+00    0.055750832542217
264.5    0    0    3.783E+00    0.055748055542649
265.0    0    0    3.778E+00    0.055745324163785
265.5    0    0    3.774E+00    0.055742638236097
266.0    0    0    3.770E+00    0.055739997590745
266.5    0    0    3.766E+00    0.055737402059835
267.0    0    0    3.762E+00    0.055734851475899
267.5    0    0    3.758E+00    0.055732345672281
268.0    0    0    3.754E+00    0.055729884483269
268.5    0    0    3.750E+00    0.055727467743691
269.0    0    0    3.746E+00    0.055725095288641
269.5    0    0    3.741E+00    0.055722766954613
270.0    0    0    3.737E+00    0.055720482578568
270.5    0    0    3.733E+00    0.055718241997826
271.0    0    0    3.729E+00    0.055716045050759
271.5    0    0    3.725E+00    0.055713891576199
272.0    0    0    3.721E+00    0.055711781413814
272.5    0    0    3.718E+00    0.055709714403824
273.0    0    0    3.714E+00    0.055707690387200
273.5    0    0    3.710E+00    0.055705709205367
274.0    0    0    3.706E+00    0.055703770700718
274.5    0    0    3.702E+00    0.055701874716227
275.0    0    0    3.698E+00    0.055700021095283
275.5    0    0    3.694E+00    0.055698209682107
276.0    0    0    3.690E+00    0.055696440321586
276.5    0    0    3.686E+00    0.055694712859280
277.0    0    0    3.683E+00    0.055693027141116
277.5    0    0    3.679E+00    0.055691383013982
278.0    0    0    3.675E+00    0.055689780325235
278.5    0    0    3.671E+00    0.055688218922887
279.0    0    0    3.667E+00    0.055686698655603
279.5    0    0    3.664E+00    0.055685219372525
280.0    0    0    3.660E+00    0.055683780923632
280.5    0    0    3.656E+00    0.055682383159421
281.0    0    0    3.652E+00    0.055681025930902
281.5    0    0    3.649E+00    0.055679709089683
282.0    0    0    3.645E+00    0.055678432488243
282.5    0    0    3.641E+00    0.055677195979506
283.0    0    0    3.638E+00    0.055675999416787
283.5    0    0    3.634E+00    0.055674842654292
284.0    0    0    3.630E+00    0.055673725546684
284.5    0    0    3.627E+00    0.055672647949214
285.0    0    0    3.623E+00    0.055671609717748
285.5    0    0    3.620E+00    0.055670610708662
286.0    0    0    3.616E+00    0.055669650778959
286.5    0    0    3.612E+00    0.055668729786351
287.0    0    0    3.609E+00    0.055667847588953
287.5    0    0    3.605E+00    0.055667004045259
288.0    0    0    3.602E+00    0.055666199014784
288.5    0    0    3.598E+00    0.055665432357470
289.0    0    0    3.595E+00    0.055664703933570
289.5    0    0    3.591E+00    0.055664013603899
290.0    0    0    3.588E+00    0.055663361230193
290.5    0    0    3.584E+00    0.055662746674550
291.0    0    0    3.581E+00    0.055662169799407
291.5    0    0    3.577E+00    0.055661630468027
292.0    0    0    3.574E+00    0.055661128544135
292.5    0    0    3.570E+00    0.055660663891931
293.0    0    0    3.567E+00    0.055660236376246
293.5    0    0    3.564E+00    0.055659845862315
294.0    0    0    3.560E+00    0.055659492215979
294.5    0    0    3.557E+00    0.055659175303695
295.0    0    0    3.553E+00    0.055658894992302
295.5    0    0    3.550E+00    0.055658651149272
296.0    0    0    3.547E+00    0.055658443642473
296.5    0    0    3.543E+00    0.055658272340368
297.0    0    0    3.540E+00    0.055658137112019
297.5    0    0    3.537E+00    0.055658037826850
298.0    0    0    3.533E+00    0.055657974354743
298.5    0    0    3.530E+00    0.055657946566333
299.0    0    0    3.527E+00    0.055657954332716
299.5    0    0    3.524E+00    0.055657997525251
300.0    0    0    3.520E+00    0.055658076015856
300.5    0    0    3.517E+00    0.055658189677243
301.0    0    0    3.514E+00    0.055658338382383
301.5    0    0    3.511E+00    0.055658522004544
302.0    0    0    3.507E+00    0.055658740417976
302.5    0    0    3.504E+00    0.055658993497071
303.0    0    0    3.501E+00    0.055659281116644
303.5    0    0    3.498E+00    0.055659603152228
304.0    0    0    3.495E+00    0.055659959479663
304.5    0    0    3.491E+00    0.055660349975588
305.0    0    0    3.488E+00    0.055660774516582
305.5    0    0    3.485E+00    0.055661232979894
306.0    0    0    3.482E+00    0.055661725243837
306.5    0    0    3.479E+00    0.055662251186324
307.0    0    0    3.476E+00    0.055662810685850
307.5    0    0    3.473E+00    0.055663403622027
308.0    0    0    3.470E+00    0.055664029874521
308.5    0    0    3.466E+00    0.055664689323282
309.0    0    0    3.463E+00    0.055665381848876
309.5    0    0    3.460E+00    0.055666107332418
310.0    0    0    3.457E+00    0.055666865655351
310.5    0    0    3.454E+00    0.055667656699677
311.0    0    0    3.451E+00    0.055668480347632
311.5    0    0    3.448E+00    0.055669336482172
312.0    0    0    3.445E+00    0.055670224986694
312.5    0    0    3.442E+00    0.055671145744610
313.0    0    0    3.439E+00    0.055672098640130
313.5    0    0    3.436E+00    0.055673083558089
314.0    0    0    3.433E+00    0.055674100383411
314.5    0    0    3.430E+00    0.055675149001282
315.0    0    0    3.427E+00    0.055676229297945
315.5    0    0    3.424E+00    0.055677341159596
316.0    0    0    3.421E+00    0.055678484472761
316.5    0    0    3.418E+00    0.055679659125042
317.0    0    0    3.415E+00    0.055680865003746
317.5    0    0    3.413E+00    0.055682101996781
318.0    0    0    3.410E+00    0.055683369992778
318.5    0    0    3.407E+00    0.055684668880544
319.0    0    0    3.404E+00    0.055685998549391
319.5    0    0    3.401E+00    0.055687358888891
320.0    0    0    3.398E+00    0.055688749789050
320.5    0    0    3.395E+00    0.055690171140587
321.0    0    0    3.392E+00    0.055691622834269
321.5    0    0    3.390E+00    0.055693104761346
322.0    0    0    3.387E+00    0.055694616813617
322.5    0    0    3.384E+00    0.055696158883130
323.0    0    0    3.381E+00    0.055697730862455
323.5    0    0    3.378E+00    0.055699332644387
324.0    0    0    3.375E+00    0.055700964122479
324.5    0    0    3.373E+00    0.055702625190322
325.0    0    0    3.370E+00    0.055704315741704
325.5    0    0    3.367E+00    0.055706035671371
326.0    0    0    3.364E+00    0.055707784874130
326.5    0    0    3.362E+00    0.055709563245341
327.0    0    0    3.359E+00    0.055711370680601
327.5    0    0    3.356E+00    0.055713207075705
328.0    0    0    3.353E+00    0.055715072327234
328.5    0    0    3.351E+00    0.055716966332032
329.0    0    0    3.348E+00    0.055718888987212
329.5    0    0    3.345E+00    0.055720840190214
330.0    0    0    3.343E+00    0.055722819838974
330.5    0    0    3.340E+00    0.055724827831871
331.0    0    0    3.337E+00    0.055726864067468
331.5    0    0    3.334E+00    0.055728928444726
332.0    0    0    3.332E+00    0.055731020863170
332.5    0    0    3.329E+00    0.055733141222519
333.0    0    0    3.327E+00    0.055735289422843
333.5    0    0    3.324E+00    0.055737465364570
334.0    0    0    3.321E+00    0.055739668948702
334.5    0    0    3.319E+00    0.055741900076383
335.0    0    0    3.316E+00    0.055744158649113
335.5    0    0    3.313E+00    0.055746444568643
336.0    0    0    3.311E+00    0.055748757737518
336.5    0    0    3.308E+00    0.055751098058420
337.0    0    0    3.306E+00    0.055753465434114
337.5    0    0    3.303E+00    0.055755859767879
338.0    0    0    3.300E+00    0.055758280963401
338.5    0    0    3.298E+00    0.055760728925096
339.0    0    0    3.295E+00    0.055763203556789
339.5    0    0    3.293E+00    0.055765704763194
340.0    0    0    3.290E+00    0.055768232449744
340.5    0    0    3.288E+00    0.055770786521707
341.0    0    0    3.285E+00    0.055773366884898
341.5    0    0    3.283E+00    0.055775973445060
342.0    0    0    3.280E+00    0.055778606108635
342.5    0    0    3.278E+00    0.055781264782705
343.0    0    0    3.275E+00    0.055783949373982
343.5    0    0    3.273E+00    0.055786659789970
344.0    0    0    3.270E+00    0.055789395938621
344.5    0    0    3.268E+00    0.055792157727661
345.0    0    0    3.265E+00    0.055794945065635
345.5    0    0    3.263E+00    0.055797757861234
346.0    0    0    3.260E+00    0.055800596023337
346.5    0    0    3.258E+00    0.055803459461619
347.0    0    0    3.255E+00    0.055806348085700
347.5    0    0    3.253E+00    0.055809261805354
348.0    0    0    3.251E+00    0.055812200530952
348.5    0    0    3.248E+00    0.055815164173280
349.0    0    0    3.246E+00    0.055818152643301
349.5    0    0    3.243E+00    0.055821165852086
350.0    0    0    3.241E+00    0.055860327065062
